Hour,Load (kW)
1,98.065
2,98.065
3,98.065
4,98.065
5,98.065
6,98.065
7,98.065
8,59.874
9,52.236
10,52.236
11,52.236
12,52.236
13,52.236
14,52.236
15,52.236
16,52.236
17,52.236
18,75.15
19,98.065
20,98.065
21,98.065
22,98.065
23,98.065
24,98.065
25,111.86
26,111.86
27,111.86
28,111.86
29,111.86
30,149.992
31,589.034
32,487.085
33,568.883
34,488.453
35,470.867
36,477.187
37,482.706
38,468
39,457.068
40,452.695
41,462.077
42,463.445
43,405.162
44,411.902
45,380.373
46,388.397
47,122.688
48,111.86
49,111.86
50,111.86
51,111.86
52,131.788
53,141.214
54,152.147
55,589.457
56,466.604
57,531.501
58,479.825
59,468.616
60,477.65
61,492.67
62,481.693
63,463.441
64,466.395
65,469.322
66,441.756
67,375.02
68,386.107
69,352.967
70,363.327
71,122.688
72,111.86
73,111.86
74,111.86
75,111.86
76,111.86
77,111.86
78,122.688
79,437.902
80,401.837
81,535.133
82,488.99
83,469.982
84,467.817
85,468.18
86,467.504
87,458.303
88,459.909
89,469.636
90,463.331
91,384.917
92,383.447
93,339.329
94,354.546
95,122.688
96,111.86
97,111.86
98,111.86
99,111.86
100,111.86
101,111.86
102,122.688
103,303.872
104,329.236
105,519.227
106,508.946
107,523.176
108,518.716
109,520.407
110,533.654
111,525.809
112,521.285
113,533.871
114,499.187
115,394.498
116,394.01
117,343.354
118,342.238
119,122.688
120,111.86
121,111.86
122,111.86
123,111.86
124,111.86
125,111.86
126,122.688
127,285.048
128,309.977
129,536.243
130,524.387
131,540.483
132,559.387
133,563.045
134,581.318
135,567.736
136,559.851
137,552.382
138,503.136
139,396.387
140,390.645
141,339.857
142,319.996
143,122.688
144,111.86
145,98.065
146,98.065
147,98.065
148,98.065
149,98.065
150,98.065
151,297.087
152,257.282
153,326.684
154,319.868
155,301.152
156,305.332
157,305.443
158,297.345
159,198.675
160,201.205
161,203.979
162,204.806
163,98.065
164,98.065
165,98.065
166,98.065
167,98.065
168,98.065
169,98.065
170,98.065
171,98.065
172,98.065
173,98.065
174,98.065
175,98.065
176,59.874
177,97.946
178,129.653
179,156.285
180,136.978
181,159.484
182,141.832
183,168.123
184,143.185
185,157.769
186,134.308
187,98.065
188,98.065
189,98.065
190,98.065
191,98.065
192,98.065
193,111.86
194,111.86
195,111.86
196,111.86
197,111.86
198,122.688
199,385.932
200,356.233
201,489.25
202,462.755
203,472.366
204,498.763
205,518.146
206,534.644
207,537.776
208,519.438
209,513.861
210,468.475
211,375.705
212,373.518
213,324.417
214,327.394
215,122.688
216,111.86
217,111.86
218,111.86
219,111.86
220,111.86
221,111.86
222,122.688
223,285.061
224,307.41
225,517.152
226,497.358
227,506.771
228,523.491
229,515.989
230,524.881
231,516.351
232,510.954
233,514.53
234,476.907
235,379.398
236,377.054
237,326.65
238,324.77
239,122.688
240,111.86
241,111.86
242,111.86
243,111.86
244,111.86
245,111.86
246,122.688
247,294.063
248,311.189
249,500.04
250,468.37
251,460.616
252,468.735
253,492.244
254,530.323
255,542.465
256,548.851
257,542.712
258,487.334
259,383.745
260,378.34
261,326.467
262,321.709
263,122.688
264,111.86
265,111.86
266,111.86
267,111.86
268,111.86
269,111.86
270,122.688
271,326.255
272,353.466
273,563.008
274,542.631
275,542.184
276,523.639
277,488.351
278,474.614
279,461
280,461.787
281,477.918
282,468.546
283,412.694
284,412.931
285,373.025
286,379.012
287,122.688
288,111.86
289,111.86
290,111.86
291,111.86
292,132.305
293,141.921
294,152.507
295,562.764
296,472.543
297,569.925
298,481.414
299,462.121
300,466.741
301,472.453
302,468.219
303,460.599
304,466.382
305,482.184
306,465.192
307,393.837
308,391.402
309,347.976
310,353.579
311,122.688
312,111.86
313,98.065
314,98.065
315,98.065
316,98.065
317,98.065
318,98.065
319,326.173
320,297.4
321,350.171
322,340.959
323,345.114
324,364.492
325,365
326,348.719
327,244.669
328,234.364
329,225.939
330,220.773
331,98.065
332,98.065
333,98.065
334,98.065
335,98.065
336,98.065
337,98.065
338,98.065
339,98.065
340,98.065
341,98.065
342,98.065
343,98.065
344,59.874
345,105.364
346,141.066
347,166.977
348,145.706
349,172.003
350,151.187
351,176.721
352,151.276
353,168.809
354,141.721
355,98.065
356,98.065
357,98.065
358,98.065
359,98.065
360,98.065
361,98.065
362,98.065
363,98.065
364,98.065
365,98.065
366,98.065
367,98.065
368,59.874
369,74.817
370,135.906
371,151.588
372,152.162
373,168.55
374,163.721
375,167.139
376,157.063
377,159.042
378,134.964
379,106.397
380,98.065
381,98.065
382,98.065
383,98.065
384,98.065
385,111.86
386,111.86
387,111.86
388,111.86
389,111.86
390,122.688
391,308.489
392,305.166
393,488.672
394,478.397
395,495.077
396,522.915
397,534.314
398,546.54
399,528.978
400,513.747
401,516.234
402,471.518
403,375.037
404,373.519
405,322.142
406,320.761
407,122.688
408,111.86
409,111.86
410,111.86
411,111.86
412,111.86
413,111.86
414,122.688
415,298.282
416,304.62
417,499.174
418,492.538
419,498.498
420,512.939
421,515.132
422,539.345
423,523.993
424,520.14
425,525.539
426,480.585
427,373.825
428,372.295
429,323.244
430,323.641
431,122.688
432,111.86
433,111.86
434,111.86
435,111.86
436,111.86
437,111.86
438,122.688
439,280.405
440,312.258
441,517.932
442,493.606
443,505.642
444,537.59
445,547.018
446,569.422
447,549.956
448,538.6
449,539.242
450,495.001
451,386.271
452,383.137
453,331.734
454,328.772
455,122.688
456,111.86
457,111.86
458,111.86
459,111.86
460,111.86
461,111.86
462,122.688
463,280.057
464,300.617
465,509.892
466,516.583
467,536.578
468,543.846
469,548.003
470,567.594
471,548.978
472,546.451
473,550.186
474,492.606
475,385.957
476,377.372
477,324.431
478,325.082
479,122.688
480,111.86
481,98.065
482,98.065
483,98.065
484,98.065
485,98.065
486,98.065
487,271.963
488,237.594
489,326.814
490,340.178
491,336.264
492,343.886
493,343.206
494,328.772
495,232.229
496,228.03
497,240.604
498,227.63
499,98.065
500,98.065
501,98.065
502,98.065
503,98.065
504,98.065
505,98.065
506,98.065
507,98.065
508,98.065
509,98.065
510,98.065
511,98.065
512,59.874
513,121.481
514,141.896
515,165.125
516,145.835
517,169.386
518,153.085
519,174.271
520,148.736
521,166.52
522,59.874
523,98.065
524,98.065
525,98.065
526,98.065
527,98.065
528,98.065
529,111.86
530,111.86
531,111.86
532,111.86
533,111.86
534,122.688
535,277.015
536,304.674
537,530.808
538,545.038
539,561.382
540,572.838
541,567.861
542,583.013
543,573.086
544,583.883
545,585.56
546,511.061
547,390.557
548,378.402
549,325.958
550,326.487
551,122.688
552,111.86
553,111.86
554,111.86
555,111.86
556,111.86
557,111.86
558,122.688
559,279.602
560,292.564
561,524.029
562,540.559
563,553.316
564,561.38
565,557.307
566,582.047
567,567.849
568,547.346
569,541.847
570,492.198
571,385.864
572,375.213
573,323.921
574,324.749
575,122.688
576,111.86
577,111.86
578,111.86
579,111.86
580,111.86
581,111.86
582,122.688
583,274.577
584,296.678
585,524.663
586,538.922
587,544.093
588,557.802
589,560.251
590,576.922
591,572.888
592,577.116
593,576.916
594,498.069
595,379.422
596,366.748
597,312.916
598,312.924
599,122.688
600,111.86
601,111.86
602,111.86
603,111.86
604,111.86
605,111.86
606,122.688
607,267.17
608,285.989
609,519.254
610,528.298
611,538.166
612,559.898
613,563.668
614,581.926
615,563.773
616,554.1
617,563.772
618,500.041
619,388.781
620,380.071
621,327.511
622,327.684
623,122.688
624,111.86
625,111.86
626,111.86
627,111.86
628,111.86
629,111.86
630,122.688
631,277.706
632,306.087
633,515.227
634,495.603
635,503.657
636,531.792
637,549.207
638,579.07
639,566.602
640,551.028
641,539.47
642,481.005
643,378.997
644,373.356
645,322.444
646,322.483
647,122.688
648,111.86
649,98.065
650,98.065
651,98.065
652,98.065
653,98.065
654,98.065
655,283.437
656,257.674
657,338.408
658,329.713
659,321.286
660,338.889
661,341.661
662,350.017
663,244.058
664,225.869
665,213.519
666,182.4
667,98.065
668,98.065
669,98.065
670,98.065
671,98.065
672,98.065
673,98.065
674,98.065
675,98.065
676,98.065
677,98.065
678,98.065
679,98.065
680,59.874
681,52.236
682,52.236
683,72.991
684,104.579
685,127.424
686,115.084
687,133.39
688,118.011
689,107.972
690,73.414
691,98.065
692,98.065
693,98.065
694,98.065
695,98.065
696,98.065
697,111.86
698,111.86
699,111.86
700,111.86
701,111.86
702,122.688
703,412.918
704,371.976
705,495.189
706,467.436
707,469.993
708,481.308
709,483.649
710,494.324
711,484.959
712,480.175
713,481.264
714,433.793
715,354.666
716,355.438
717,310.695
718,317.578
719,122.688
720,111.86
721,111.86
722,111.86
723,111.86
724,111.86
725,111.86
726,122.688
727,417.538
728,347.181
729,489.474
730,464.18
731,466.554
732,477.054
733,484.433
734,491.577
735,487.728
736,491.96
737,485.889
738,426.861
739,346.254
740,351.519
741,312.42
742,321.045
743,122.688
744,111.86
745,111.86
746,111.86
747,111.86
748,111.86
749,111.86
750,122.688
751,339.981
752,324.116
753,489.37
754,477.203
755,489.872
756,499.049
757,502.637
758,511.649
759,502.367
760,511.494
761,517.064
762,452.349
763,360.692
764,361.338
765,312.241
766,313.162
767,122.688
768,111.86
769,111.86
770,111.86
771,111.86
772,111.86
773,111.86
774,122.688
775,316.136
776,311.017
777,489.28
778,473.872
779,481.209
780,496.036
781,499.654
782,512.537
783,501.411
784,498.588
785,504.352
786,454.944
787,380.565
788,377.43
789,325.89
790,326.644
791,122.688
792,111.86
793,111.86
794,111.86
795,111.86
796,111.86
797,111.86
798,122.688
799,285.399
800,308.467
801,522.193
802,492.407
803,496.154
804,524.571
805,542.28
806,557.887
807,550.102
808,536.594
809,531.155
810,470.493
811,375.579
812,372.62
813,324.95
814,325.038
815,122.688
816,111.86
817,98.065
818,98.065
819,98.065
820,98.065
821,98.065
822,98.065
823,308.062
824,271.245
825,348.15
826,351.539
827,360.248
828,346.774
829,315.756
830,309.087
831,217.312
832,212.64
833,219.343
834,202.459
835,98.065
836,98.065
837,98.065
838,98.065
839,98.065
840,98.065
841,98.065
842,98.065
843,98.065
844,98.065
845,98.065
846,98.065
847,98.065
848,52.236
849,52.236
850,52.236
851,52.236
852,52.236
853,52.236
854,52.236
855,52.236
856,52.236
857,52.236
858,52.236
859,98.065
860,98.065
861,98.065
862,98.065
863,98.065
864,98.065
865,111.86
866,111.86
867,111.86
868,111.86
869,111.86
870,122.688
871,296.045
872,302.851
873,491.346
874,469.965
875,474.982
876,489.639
877,491.739
878,498.396
879,485.586
880,481.101
881,485.091
882,436.056
883,369.173
884,368.556
885,318.169
886,317.447
887,122.688
888,111.86
889,111.86
890,111.86
891,111.86
892,111.86
893,111.86
894,122.688
895,279.367
896,303.149
897,518.631
898,504.964
899,517.145
900,545.573
901,557.552
902,576.006
903,560.824
904,549.548
905,552.206
906,491.452
907,391.017
908,381.83
909,329.663
910,327.166
911,122.688
912,111.86
913,111.86
914,111.86
915,111.86
916,111.86
917,111.86
918,122.688
919,273.831
920,276.306
921,495.502
922,472.41
923,473.886
924,487.862
925,489.671
926,503.762
927,500.904
928,509.458
929,518.865
930,449.379
931,348.05
932,344.475
933,297.981
934,302.832
935,122.688
936,111.86
937,111.86
938,111.86
939,111.86
940,111.86
941,111.86
942,122.688
943,353.6
944,309.285
945,483.579
946,457.031
947,455.218
948,466.222
949,471.365
950,473.473
951,467.287
952,471.477
953,480.313
954,422.473
955,346.671
956,350.173
957,310.421
958,320.341
959,122.688
960,111.86
961,111.86
962,111.86
963,111.86
964,111.86
965,111.86
966,122.688
967,409.822
968,355.247
969,490.848
970,452.917
971,448.6
972,453.675
973,456.708
974,453.951
975,442.923
976,443.118
977,447.365
978,405.008
979,358.972
980,366.585
981,331.778
982,337.72
983,122.688
984,111.86
985,98.065
986,98.065
987,98.065
988,98.065
989,98.065
990,98.065
991,391.603
992,308.971
993,368.199
994,341.473
995,322.844
996,321.377
997,308.572
998,292.587
999,204.768
1000,205.969
1001,221.853
1002,222.116
1003,98.065
1004,98.065
1005,98.065
1006,98.065
1007,98.065
1008,98.065
1009,98.065
1010,98.065
1011,98.065
1012,98.065
1013,98.065
1014,98.065
1015,98.065
1016,52.236
1017,52.236
1018,52.236
1019,52.236
1020,83.504
1021,117.641
1022,116.37
1023,124.262
1024,119.933
1025,106.755
1026,61.902
1027,98.065
1028,98.065
1029,98.065
1030,98.065
1031,98.065
1032,98.065
1033,111.86
1034,111.86
1035,111.86
1036,111.86
1037,111.86
1038,122.688
1039,454.331
1040,384.19
1041,502.105
1042,470.629
1043,473.947
1044,487.935
1045,491.542
1046,493.577
1047,484.92
1048,482.425
1049,489.481
1050,433.651
1051,360.585
1052,364.706
1053,320.778
1054,323.443
1055,122.688
1056,111.86
1057,111.86
1058,111.86
1059,111.86
1060,111.86
1061,111.86
1062,122.688
1063,330.866
1064,304.765
1065,497.534
1066,483.326
1067,484.44
1068,492.411
1069,495.035
1070,507.25
1071,497.922
1072,493.292
1073,501.652
1074,442.14
1075,359.389
1076,361.158
1077,312.791
1078,311.762
1079,122.688
1080,111.86
1081,111.86
1082,111.86
1083,111.86
1084,111.86
1085,111.86
1086,122.688
1087,292.095
1088,287.072
1089,505.854
1090,498.253
1091,511.513
1092,517.314
1093,502.031
1094,512.723
1095,516.615
1096,526.848
1097,537.744
1098,463.897
1099,367.894
1100,363.542
1101,314.423
1102,314.08
1103,122.688
1104,111.86
1105,111.86
1106,111.86
1107,111.86
1108,111.86
1109,111.86
1110,122.688
1111,287.303
1112,290.654
1113,496.006
1114,481.749
1115,492.939
1116,517.086
1117,520.415
1118,525.041
1119,514.265
1120,517.337
1121,523.594
1122,455.215
1123,357.592
1124,360.858
1125,311.88
1126,312.961
1127,122.688
1128,111.86
1129,111.86
1130,111.86
1131,111.86
1132,111.86
1133,111.86
1134,122.688
1135,265.925
1136,291.09
1137,510.062
1138,493.48
1139,505.767
1140,526.291
1141,517.552
1142,527.767
1143,512.216
1144,509.706
1145,527.621
1146,469.683
1147,364.288
1148,363.543
1149,314.198
1150,315.526
1151,122.688
1152,111.86
1153,98.065
1154,98.065
1155,98.065
1156,98.065
1157,98.065
1158,98.065
1159,266.74
1160,229.608
1161,330.864
1162,351.916
1163,355.809
1164,359.008
1165,357.986
1166,365.925
1167,256.228
1168,232.488
1169,224.148
1170,195.66
1171,90.427
1172,98.065
1173,98.065
1174,98.065
1175,98.065
1176,98.065
1177,98.065
1178,98.065
1179,98.065
1180,98.065
1181,98.065
1182,98.065
1183,90.427
1184,99.799
1185,145.933
1186,146.473
1187,162.723
1188,158.858
1189,165.342
1190,156.803
1191,170.889
1192,163.927
1193,163.79
1194,90.675
1195,90.427
1196,98.065
1197,98.065
1198,98.065
1199,98.065
1200,98.065
1201,98.065
1202,98.065
1203,98.065
1204,98.065
1205,98.065
1206,98.065
1207,90.427
1208,97.159
1209,146.723
1210,169.081
1211,146.253
1212,173.5
1213,149.069
1214,176.562
1215,150.347
1216,175.528
1217,145.894
1218,79.961
1219,90.427
1220,98.065
1221,98.065
1222,98.065
1223,98.065
1224,98.065
1225,111.86
1226,111.86
1227,111.86
1228,111.86
1229,111.86
1230,122.688
1231,265.231
1232,291.945
1233,529.353
1234,522.677
1235,551.957
1236,570.759
1237,565.426
1238,584.977
1239,576.709
1240,578.196
1241,582.496
1242,508.436
1243,395.333
1244,388.897
1245,329.582
1246,330.381
1247,122.688
1248,111.86
1249,111.86
1250,111.86
1251,111.86
1252,111.86
1253,111.86
1254,122.688
1255,269.09
1256,294.853
1257,543.077
1258,547.21
1259,562.48
1260,584.843
1261,583.216
1262,604.782
1263,598.379
1264,607.486
1265,602.021
1266,515.615
1267,391.26
1268,382.258
1269,322.563
1270,322.56
1271,122.688
1272,111.86
1273,111.86
1274,111.86
1275,111.86
1276,111.86
1277,111.86
1278,122.688
1279,268.991
1280,294.266
1281,556.333
1282,573.133
1283,590.343
1284,606.153
1285,599.365
1286,605.25
1287,573.774
1288,572.467
1289,570.615
1290,501.551
1291,391.031
1292,387.946
1293,331.735
1294,328.884
1295,122.688
1296,111.86
1297,111.86
1298,111.86
1299,111.86
1300,111.86
1301,111.86
1302,122.688
1303,271.806
1304,294.604
1305,543.505
1306,544.878
1307,562.363
1308,589.268
1309,585.853
1310,595.871
1311,595.042
1312,602.111
1313,605.171
1314,526.9
1315,394.655
1316,384.422
1317,325.387
1318,322.937
1319,122.688
1320,111.86
1321,98.065
1322,98.065
1323,98.065
1324,98.065
1325,98.065
1326,98.065
1327,266.543
1328,239.321
1329,339.071
1330,351.009
1331,356.383
1332,386.054
1333,399.667
1334,395.59
1335,253.354
1336,226.961
1337,211.897
1338,183.052
1339,90.427
1340,98.065
1341,98.065
1342,98.065
1343,98.065
1344,98.065
1345,98.065
1346,98.065
1347,98.065
1348,98.065
1349,98.065
1350,98.065
1351,90.427
1352,52.236
1353,58.875
1354,79.727
1355,52.236
1356,81.811
1357,124.306
1358,114.311
1359,136.005
1360,120.779
1361,134.959
1362,115.249
1363,114.427
1364,98.065
1365,98.065
1366,98.065
1367,98.065
1368,98.065
1369,111.86
1370,111.86
1371,111.86
1372,111.86
1373,111.86
1374,122.688
1375,364.177
1376,338.1
1377,494.36
1378,472.023
1379,475.558
1380,490.499
1381,498.711
1382,512.81
1383,503.865
1384,497.864
1385,496.904
1386,448.24
1387,369.779
1388,377.923
1389,329.719
1390,330.529
1391,122.688
1392,111.86
1393,111.86
1394,111.86
1395,111.86
1396,111.86
1397,111.86
1398,122.688
1399,266.106
1400,295.127
1401,540.909
1402,539.625
1403,547.887
1404,559.91
1405,556.889
1406,575
1407,570.07
1408,580.755
1409,580.554
1410,504.733
1411,381.168
1412,368.175
1413,311.699
1414,310.049
1415,122.688
1416,111.86
1417,111.86
1418,111.86
1419,111.86
1420,111.86
1421,111.86
1422,122.688
1423,300.272
1424,277.754
1425,487.437
1426,475.924
1427,480.046
1428,492.792
1429,496.497
1430,508.726
1431,509.129
1432,518.268
1433,526.111
1434,458.758
1435,348.109
1436,347.183
1437,299.499
1438,299.089
1439,122.688
1440,111.86
1441,111.86
1442,111.86
1443,111.86
1444,111.86
1445,111.86
1446,122.688
1447,303.207
1448,284.249
1449,498.514
1450,492.601
1451,492.858
1452,501.882
1453,502.431
1454,518.529
1455,515.673
1456,502.881
1457,508.27
1458,444.538
1459,350.397
1460,356.36
1461,308.585
1462,307.626
1463,122.688
1464,111.86
1465,111.86
1466,111.86
1467,111.86
1468,111.86
1469,111.86
1470,122.688
1471,245.883
1472,273.738
1473,508.228
1474,503.652
1475,510.685
1476,534.059
1477,537.772
1478,561.101
1479,559.366
1480,556.145
1481,549.062
1482,484.947
1483,380.091
1484,378.288
1485,327.2
1486,327.405
1487,122.688
1488,111.86
1489,98.065
1490,98.065
1491,98.065
1492,98.065
1493,98.065
1494,98.065
1495,261.386
1496,238.468
1497,338.89
1498,351.812
1499,367.957
1500,393.606
1501,387.772
1502,383.613
1503,271.269
1504,258.833
1505,245.487
1506,206.74
1507,82.789
1508,98.065
1509,98.065
1510,98.065
1511,98.065
1512,98.065
1513,98.065
1514,98.065
1515,98.065
1516,98.065
1517,98.065
1518,98.065
1519,82.789
1520,52.236
1521,52.236
1522,52.236
1523,162.338
1524,160.411
1525,186.194
1526,157.319
1527,184.101
1528,143.697
1529,147.695
1530,124.679
1531,98.157
1532,98.065
1533,98.065
1534,98.065
1535,98.065
1536,98.065
1537,111.86
1538,111.86
1539,111.86
1540,111.86
1541,111.86
1542,122.688
1543,267.328
1544,295.812
1545,534.284
1546,527.01
1547,533.93
1548,537.735
1549,525.772
1550,551.096
1551,541.035
1552,541.159
1553,548.308
1554,482.499
1555,369.194
1556,376.983
1557,326.395
1558,324.657
1559,122.688
1560,111.86
1561,111.86
1562,111.86
1563,111.86
1564,111.86
1565,111.86
1566,122.688
1567,257.729
1568,287.3
1569,506.593
1570,486.113
1571,489.495
1572,506.514
1573,509.879
1574,531.31
1575,531.509
1576,528.371
1577,529.15
1578,470.414
1579,362.728
1580,370.322
1581,320.236
1582,318.685
1583,122.688
1584,111.86
1585,111.86
1586,111.86
1587,111.86
1588,111.86
1589,111.86
1590,122.688
1591,249.247
1592,277.899
1593,509.673
1594,503.13
1595,511.394
1596,529.857
1597,523.511
1598,541.721
1599,544.749
1600,551.536
1601,540.665
1602,473.981
1603,360.038
1604,364.764
1605,313.285
1606,312.042
1607,122.688
1608,111.86
1609,111.86
1610,111.86
1611,111.86
1612,111.86
1613,111.86
1614,122.688
1615,254.551
1616,287.186
1617,528.856
1618,531.554
1619,537.473
1620,548.312
1621,547.903
1622,580.594
1623,583.428
1624,595.813
1625,594.504
1626,517.824
1627,390.069
1628,391.136
1629,334.767
1630,335.059
1631,122.688
1632,111.86
1633,111.86
1634,111.86
1635,111.86
1636,111.86
1637,111.86
1638,122.688
1639,269.057
1640,302.394
1641,542.247
1642,523.38
1643,508.255
1644,498.212
1645,485.741
1646,491.66
1647,488.401
1648,496.983
1649,501.046
1650,432.561
1651,331.767
1652,346.705
1653,298.107
1654,299.704
1655,122.688
1656,111.86
1657,98.065
1658,98.065
1659,98.065
1660,98.065
1661,98.065
1662,98.065
1663,311.41
1664,232.083
1665,297.038
1666,292.839
1667,286.398
1668,295.976
1669,300.932
1670,296.4
1671,201.416
1672,201.185
1673,200.134
1674,172.731
1675,82.789
1676,98.065
1677,98.065
1678,98.065
1679,98.065
1680,98.065
1681,98.065
1682,98.065
1683,98.065
1684,98.065
1685,98.065
1686,98.065
1687,75.15
1688,64.084
1689,75.296
1690,95.882
1691,116.056
1692,132.962
1693,136.098
1694,143.694
1695,139.858
1696,144.738
1697,140.675
1698,143.434
1699,132.649
1700,98.065
1701,98.065
1702,98.065
1703,98.065
1704,98.065
1705,111.86
1706,111.86
1707,111.86
1708,111.86
1709,122.688
1710,274.131
1711,325.928
1712,525.073
1713,513.739
1714,520.844
1715,543.008
1716,560.822
1717,589.249
1718,583.96
1719,590.62
1720,620.407
1721,555.574
1722,381.833
1723,390.687
1724,340.541
1725,334.13
1726,122.688
1727,111.86
1728,111.86
1729,111.86
1730,111.86
1731,111.86
1732,111.86
1733,122.688
1734,285.541
1735,333.126
1736,544.471
1737,533.908
1738,565.006
1739,584.987
1740,543.059
1741,537.647
1742,526.59
1743,540.215
1744,562.96
1745,497.808
1746,331.151
1747,334.664
1748,283.795
1749,285.503
1750,122.688
1751,111.86
1752,111.86
1753,111.86
1754,111.86
1755,111.86
1756,111.86
1757,122.688
1758,341.839
1759,352.439
1760,489.736
1761,449.765
1762,439.5
1763,444.426
1764,450.478
1765,460.584
1766,447.094
1767,450.975
1768,467.758
1769,420.648
1770,292.341
1771,316.457
1772,299.709
1773,312.509
1774,122.688
1775,111.86
1776,111.86
1777,111.86
1778,111.86
1779,111.86
1780,111.86
1781,122.688
1782,456.337
1783,423.006
1784,522.702
1785,465.857
1786,446.257
1787,449.93
1788,456.937
1789,465.943
1790,452.892
1791,452.747
1792,464.041
1793,413.626
1794,292.854
1795,322.96
1796,303.561
1797,311.122
1798,122.688
1799,111.86
1800,111.86
1801,111.86
1802,111.86
1803,111.86
1804,111.86
1805,122.688
1806,350.742
1807,364.452
1808,489.875
1809,453.448
1810,449.65
1811,463.199
1812,472.497
1813,480.616
1814,475.273
1815,477.489
1816,480.969
1817,428.525
1818,303.09
1819,326.879
1820,297.797
1821,302.284
1822,122.688
1823,111.86
1824,111.86
1825,98.065
1826,98.065
1827,98.065
1828,98.065
1829,98.065
1830,284.656
1831,272.162
1832,314.385
1833,316.506
1834,313.476
1835,321.073
1836,319.236
1837,315.128
1838,218.532
1839,218.395
1840,223.683
1841,202.052
1842,52.236
1843,82.789
1844,98.065
1845,98.065
1846,98.065
1847,98.065
1848,98.065
1849,98.065
1850,98.065
1851,98.065
1852,98.065
1853,98.065
1854,98.065
1855,75.15
1856,52.236
1857,52.236
1858,52.236
1859,52.236
1860,52.236
1861,52.236
1862,52.236
1863,52.236
1864,52.236
1865,52.236
1866,52.236
1867,82.789
1868,98.065
1869,98.065
1870,98.065
1871,98.065
1872,98.065
1873,111.86
1874,111.86
1875,111.86
1876,111.86
1877,122.688
1878,398.425
1879,387.948
1880,511.285
1881,463.555
1882,447.002
1883,448.834
1884,451.144
1885,457.121
1886,441.975
1887,443.764
1888,456.489
1889,412.111
1890,291.141
1891,325.497
1892,307.071
1893,318.022
1894,122.688
1895,111.86
1896,111.86
1897,111.86
1898,111.86
1899,111.86
1900,111.86
1901,122.688
1902,395.338
1903,384.244
1904,509.206
1905,463.994
1906,454.407
1907,460.834
1908,467.102
1909,477.887
1910,470.307
1911,475.425
1912,490.614
1913,447.562
1914,315.203
1915,333.311
1916,299.835
1917,306.031
1918,122.688
1919,111.86
1920,111.86
1921,111.86
1922,111.86
1923,111.86
1924,111.86
1925,122.688
1926,343.844
1927,349.026
1928,490.376
1929,457.517
1930,455
1931,471.847
1932,476.476
1933,492.435
1934,484.275
1935,491.887
1936,506.923
1937,457.617
1938,315.802
1939,336.213
1940,304.099
1941,306.651
1942,122.688
1943,111.86
1944,111.86
1945,111.86
1946,111.86
1947,111.86
1948,111.86
1949,122.688
1950,264.283
1951,298.193
1952,496.775
1953,475.292
1954,477.621
1955,498.929
1956,498.836
1957,515.398
1958,515.057
1959,521.624
1960,537.603
1961,473.085
1962,326.944
1963,347.772
1964,307.899
1965,311
1966,122.688
1967,111.86
1968,111.86
1969,111.86
1970,111.86
1971,111.86
1972,111.86
1973,122.688
1974,267.032
1975,298.564
1976,511.236
1977,501.052
1978,507.387
1979,536.838
1980,541.29
1981,558.553
1982,546.052
1983,538.18
1984,545.524
1985,490.271
1986,340.425
1987,357.622
1988,315.68
1989,316.213
1990,122.688
1991,111.86
1992,111.86
1993,98.065
1994,98.065
1995,98.065
1996,98.065
1997,98.065
1998,270.335
1999,244.772
2000,320.198
2001,327.451
2002,329.07
2003,344.74
2004,350.355
2005,350.702
2006,245.896
2007,246.554
2008,246.837
2009,205.955
2010,147.575
2011,96.368
2012,98.065
2013,98.065
2014,98.065
2015,98.065
2016,98.065
2017,98.065
2018,98.065
2019,98.065
2020,98.065
2021,98.065
2022,98.065
2023,67.512
2024,117.735
2025,142.608
2026,149.35
2027,159.641
2028,149.849
2029,166.242
2030,159.501
2031,173.144
2032,155.188
2033,122.591
2034,71.551
2035,75.15
2036,98.065
2037,98.065
2038,98.065
2039,98.065
2040,98.065
2041,111.86
2042,111.86
2043,111.86
2044,111.86
2045,122.688
2046,279.098
2047,301.501
2048,510.161
2049,515.295
2050,538.841
2051,572.562
2052,559.816
2053,589.342
2054,588.475
2055,604.904
2056,623.354
2057,554.49
2058,374.404
2059,372.874
2060,326.461
2061,324.585
2062,122.688
2063,111.86
2064,111.86
2065,111.86
2066,111.86
2067,111.86
2068,111.86
2069,122.688
2070,272.843
2071,301.203
2072,518.015
2073,510.252
2074,527.687
2075,556.646
2076,560.774
2077,575.396
2078,572.716
2079,583.781
2080,590.372
2081,530.908
2082,371.767
2083,364.342
2084,320.46
2085,318.899
2086,122.688
2087,111.86
2088,111.86
2089,111.86
2090,111.86
2091,111.86
2092,111.86
2093,122.688
2094,264.417
2095,298.375
2096,523.079
2097,514.7
2098,530.204
2099,546.029
2100,543.003
2101,561.843
2102,566.585
2103,581.039
2104,580.457
2105,516.297
2106,359.184
2107,361.51
2108,318.761
2109,316.686
2110,122.688
2111,111.86
2112,111.86
2113,111.86
2114,111.86
2115,111.86
2116,111.86
2117,122.688
2118,267.286
2119,292.144
2120,521.206
2121,518.646
2122,535.925
2123,560.301
2124,561.467
2125,573.797
2126,573.601
2127,574.464
2128,590.56
2129,521.601
2130,356.926
2131,355.477
2132,313.806
2133,312.095
2134,122.688
2135,111.86
2136,111.86
2137,111.86
2138,111.86
2139,111.86
2140,111.86
2141,122.688
2142,262.957
2143,289.327
2144,518.807
2145,515.834
2146,528.43
2147,541.508
2148,537.024
2149,552.374
2150,540.867
2151,550.031
2152,572.251
2153,503.108
2154,339.1
2155,345.666
2156,305.648
2157,304.623
2158,122.688
2159,111.86
2160,111.86
2161,98.065
2162,98.065
2163,98.065
2164,98.065
2165,98.065
2166,266.658
2167,236.545
2168,326.09
2169,343.237
2170,364.131
2171,388.265
2172,397.084
2173,402.883
2174,299.526
2175,301.788
2176,308.208
2177,267.487
2178,171.79
2179,178.271
2180,98.065
2181,98.065
2182,98.065
2183,98.065
2184,98.065
2185,98.065
2186,98.065
2187,98.065
2188,98.065
2189,98.065
2190,98.065
2191,59.874
2192,108.447
2193,158.593
2194,170.774
2195,164.193
2196,179.931
2197,174.038
2198,186.992
2199,176.896
2200,181.163
2201,170.549
2202,174.597
2203,172.085
2204,151.221
2205,117.357
2206,98.065
2207,98.065
2208,98.065
2209,143.143
2210,111.86
2211,111.86
2212,111.86
2213,150.481
2214,269.901
2215,296.766
2216,542.689
2217,552.38
2218,578.454
2219,611.219
2220,606.916
2221,626.455
2222,635.701
2223,648.356
2224,652.264
2225,582.831
2226,412.862
2227,405.575
2228,351.856
2229,344.824
2230,122.688
2231,134.221
2232,121.902
2233,111.86
2234,111.86
2235,143.261
2236,111.86
2237,151.567
2238,280.254
2239,315.503
2240,565.592
2241,560.956
2242,568.297
2243,599.374
2244,607.21
2245,624.41
2246,627.075
2247,623.629
2248,645.854
2249,597.196
2250,426.561
2251,407.043
2252,350.326
2253,343.747
2254,122.688
2255,111.86
2256,134.328
2257,121.954
2258,111.86
2259,111.86
2260,169.578
2261,122.688
2262,284.326
2263,313.974
2264,562.495
2265,554.161
2266,560.467
2267,583.268
2268,593.089
2269,614.319
2270,591.769
2271,575.402
2272,582.488
2273,530.606
2274,375.376
2275,375.608
2276,331.866
2277,330.525
2278,122.688
2279,111.86
2280,111.86
2281,111.86
2282,111.86
2283,111.86
2284,111.86
2285,122.688
2286,259.899
2287,272.712
2288,473.669
2289,449.713
2290,450.158
2291,460.62
2292,462.513
2293,481.018
2294,477.176
2295,489.262
2296,511.139
2297,459.567
2298,307.791
2299,312.754
2300,283.228
2301,284.962
2302,122.688
2303,111.86
2304,111.86
2305,111.86
2306,111.86
2307,111.86
2308,111.86
2309,122.688
2310,305.913
2311,302.002
2312,475.313
2313,451.529
2314,457.005
2315,477.143
2316,481.877
2317,491.06
2318,487.01
2319,490.894
2320,504.713
2321,458.721
2322,316.352
2323,325.379
2324,295.902
2325,299.714
2326,122.688
2327,111.86
2328,111.86
2329,98.065
2330,98.065
2331,98.065
2332,98.065
2333,98.065
2334,264.043
2335,218.3
2336,308.342
2337,325.472
2338,326.368
2339,339.016
2340,341.286
2341,343.008
2342,240.475
2343,236.878
2344,242.092
2345,207.281
2346,148.851
2347,153.788
2348,98.065
2349,98.065
2350,98.065
2351,98.065
2352,98.065
2353,98.065
2354,98.065
2355,98.065
2356,98.065
2357,98.065
2358,98.065
2359,52.236
2360,104.096
2361,149.109
2362,132.939
2363,162.811
2364,145.366
2365,173.515
2366,147.244
2367,173.69
2368,150.378
2369,174.837
2370,145.751
2371,141.712
2372,98.065
2373,98.065
2374,98.065
2375,98.065
2376,98.065
2377,111.86
2378,111.86
2379,111.86
2380,111.86
2381,122.688
2382,327.544
2383,313.475
2384,482.032
2385,458.646
2386,467.95
2387,497.806
2388,508.717
2389,533.711
2390,532.447
2391,537.623
2392,537.619
2393,470.962
2394,328.174
2395,340.013
2396,307.363
2397,308.832
2398,122.688
2399,111.86
2400,111.86
2401,111.86
2402,111.86
2403,111.86
2404,111.86
2405,122.688
2406,256.699
2407,276.099
2408,506.842
2409,496.131
2410,510.057
2411,534.656
2412,532.84
2413,552.893
2414,543.704
2415,541.392
2416,549.144
2417,495.888
2418,351.971
2419,365.002
2420,326.716
2421,323.05
2422,122.688
2423,111.86
2424,111.86
2425,111.86
2426,111.86
2427,111.86
2428,111.86
2429,122.688
2430,268.565
2431,286.865
2432,526.556
2433,514.895
2434,537.02
2435,562.431
2436,556.802
2437,578.314
2438,574.486
2439,581.221
2440,590.745
2441,529.149
2442,373.883
2443,380.107
2444,339.616
2445,336.458
2446,122.688
2447,111.86
2448,111.86
2449,111.86
2450,111.86
2451,111.86
2452,111.86
2453,122.688
2454,279.038
2455,295.93
2456,547.406
2457,551.582
2458,573.473
2459,599.658
2460,593.759
2461,614.415
2462,611.078
2463,620.874
2464,636.44
2465,568.441
2466,398.216
2467,390.223
2468,338.544
2469,331.116
2470,122.688
2471,111.86
2472,111.86
2473,111.86
2474,111.86
2475,111.86
2476,111.86
2477,122.688
2478,282.09
2479,299.055
2480,562.378
2481,562.93
2482,580.963
2483,603.745
2484,598.113
2485,612.349
2486,609.903
2487,623.159
2488,638.972
2489,575.503
2490,408.002
2491,394.023
2492,339.825
2493,330.983
2494,122.688
2495,111.86
2496,111.86
2497,98.065
2498,98.065
2499,98.065
2500,98.065
2501,98.065
2502,275.155
2503,230.231
2504,331.024
2505,356.615
2506,375.404
2507,390.789
2508,394.371
2509,394.384
2510,291.59
2511,294.556
2512,296.938
2513,260.204
2514,168.443
2515,174.406
2516,128.569
2517,98.065
2518,98.065
2519,98.065
2520,98.065
2521,98.065
2522,98.065
2523,98.065
2524,98.065
2525,98.065
2526,98.065
2527,52.236
2528,148.442
2529,165.403
2530,162.915
2531,173.399
2532,167.693
2533,154.375
2534,52.236
2535,61.931
2536,173.989
2537,145.925
2538,166.002
2539,124.134
2540,98.065
2541,98.065
2542,98.065
2543,98.065
2544,98.065
2545,111.86
2546,111.86
2547,111.86
2548,111.86
2549,122.688
2550,268.054
2551,285.411
2552,512.242
2553,515.67
2554,543.403
2555,576.738
2556,578.912
2557,617.692
2558,616.195
2559,573.499
2560,544.691
2561,483.25
2562,339.961
2563,347.01
2564,325.197
2565,326.575
2566,122.688
2567,111.86
2568,111.86
2569,111.86
2570,111.86
2571,111.86
2572,111.86
2573,122.688
2574,254.961
2575,274.191
2576,502.381
2577,489.098
2578,510.582
2579,542.667
2580,539.449
2581,557.227
2582,553.671
2583,565.093
2584,578.499
2585,518.869
2586,351.063
2587,342.225
2588,306.21
2589,302.656
2590,122.688
2591,111.86
2592,111.86
2593,111.86
2594,111.86
2595,111.86
2596,111.86
2597,122.688
2598,248.014
2599,270.626
2600,507.891
2601,496.932
2602,509.359
2603,531.898
2604,526.722
2605,541.845
2606,534.857
2607,549.284
2608,563.798
2609,503.836
2610,346.718
2611,337.039
2612,299.918
2613,294.88
2614,122.688
2615,111.86
2616,111.86
2617,111.86
2618,111.86
2619,111.86
2620,111.86
2621,122.688
2622,250.875
2623,279.715
2624,498.934
2625,483.949
2626,506.977
2627,540.75
2628,538.281
2629,551.858
2630,543.961
2631,551.468
2632,566.147
2633,511.843
2634,351.852
2635,342.161
2636,305.777
2637,300.193
2638,122.688
2639,111.86
2640,111.86
2641,111.86
2642,111.86
2643,111.86
2644,111.86
2645,122.688
2646,248.396
2647,273.765
2648,512.781
2649,503.74
2650,521.647
2651,547.492
2652,546.507
2653,553.912
2654,546.7
2655,557.507
2656,560.454
2657,490.525
2658,340.661
2659,343.173
2660,315.809
2661,312.11
2662,122.688
2663,111.86
2664,111.86
2665,98.065
2666,98.065
2667,98.065
2668,98.065
2669,98.065
2670,251.734
2671,220.452
2672,321.621
2673,338.421
2674,338.344
2675,360.156
2676,361.982
2677,359.428
2678,253.483
2679,251.489
2680,255.14
2681,217.383
2682,155.925
2683,161.461
2684,98.065
2685,98.065
2686,98.065
2687,98.065
2688,98.065
2689,98.065
2690,98.065
2691,98.065
2692,98.065
2693,98.065
2694,90.427
2695,114.82
2696,148.82
2697,171.124
2698,150.739
2699,177.146
2700,155.37
2701,182.478
2702,157.728
2703,182.408
2704,148.077
2705,156.454
2706,121.354
2707,67.512
2708,98.065
2709,98.065
2710,98.065
2711,98.065
2712,98.065
2713,111.86
2714,111.86
2715,111.86
2716,111.86
2717,122.688
2718,269.052
2719,293.098
2720,534.338
2721,530.895
2722,552.809
2723,577.92
2724,581.497
2725,615.074
2726,620.379
2727,619.374
2728,617.332
2729,532.139
2730,370.304
2731,369.846
2732,338.237
2733,329.183
2734,122.688
2735,111.86
2736,111.86
2737,111.86
2738,111.86
2739,111.86
2740,111.86
2741,122.688
2742,258.021
2743,284.259
2744,516.617
2745,503.015
2746,514.001
2747,537.576
2748,532.973
2749,548.822
2750,543.446
2751,545.338
2752,550.245
2753,485.815
2754,336.304
2755,338.203
2756,301.356
2757,295.933
2758,122.688
2759,111.86
2760,111.86
2761,111.86
2762,111.86
2763,111.86
2764,111.86
2765,122.688
2766,242.819
2767,266.805
2768,487.154
2769,471.482
2770,482.628
2771,495.739
2772,497.401
2773,520.122
2774,518.544
2775,524.461
2776,537.727
2777,478.715
2778,330.735
2779,330.697
2780,296.818
2781,295.304
2782,122.688
2783,111.86
2784,111.86
2785,111.86
2786,111.86
2787,111.86
2788,111.86
2789,122.688
2790,251.746
2791,261.883
2792,496.905
2793,487.273
2794,495.527
2795,515.215
2796,518.484
2797,540.585
2798,533.938
2799,536.77
2800,550.386
2801,491.225
2802,333.469
2803,331.514
2804,301.064
2805,300.947
2806,122.688
2807,111.86
2808,111.86
2809,111.86
2810,111.86
2811,111.86
2812,111.86
2813,122.688
2814,243.446
2815,269.712
2816,513.163
2817,495.179
2818,508.68
2819,529.707
2820,523.667
2821,542.401
2822,536.688
2823,545.492
2824,556.183
2825,498.127
2826,342.904
2827,340.324
2828,309.859
2829,309.255
2830,122.688
2831,111.86
2832,111.86
2833,98.065
2834,98.065
2835,98.065
2836,98.065
2837,98.065
2838,243.654
2839,208.144
2840,305.474
2841,318.643
2842,324.408
2843,335.974
2844,338.134
2845,335.456
2846,228.485
2847,224.045
2848,224.927
2849,192.264
2850,143.403
2851,122.073
2852,98.065
2853,98.065
2854,98.065
2855,98.065
2856,98.065
2857,98.065
2858,98.065
2859,98.065
2860,98.065
2861,98.065
2862,82.789
2863,52.236
2864,80.331
2865,135.567
2866,144.033
2867,139.262
2868,140.883
2869,132.69
2870,124.549
2871,151.372
2872,145.155
2873,151.947
2874,141.168
2875,119.652
2876,98.065
2877,98.065
2878,98.065
2879,98.065
2880,98.065
2881,111.86
2882,111.86
2883,111.86
2884,111.86
2885,122.688
2886,250.735
2887,280.966
2888,496.396
2889,487.303
2890,497.105
2891,520.381
2892,524.977
2893,543.174
2894,549.215
2895,569.158
2896,562.917
2897,496.802
2898,347.179
2899,349.936
2900,312.898
2901,313.408
2902,122.688
2903,111.86
2904,111.86
2905,111.86
2906,111.86
2907,111.86
2908,111.86
2909,122.688
2910,252.595
2911,274.052
2912,503.688
2913,492.473
2914,487.838
2915,487.091
2916,491.48
2917,520.341
2918,517.677
2919,507.25
2920,517.388
2921,474.236
2922,343.193
2923,351.688
2924,336.49
2925,335.672
2926,122.688
2927,111.86
2928,111.86
2929,111.86
2930,111.86
2931,111.86
2932,111.86
2933,122.688
2934,270.632
2935,302.069
2936,538.658
2937,523.723
2938,544.507
2939,571.432
2940,565.061
2941,580.991
2942,581.902
2943,589.674
2944,598.803
2945,541.644
2946,379.386
2947,368.897
2948,327.266
2949,323.982
2950,122.688
2951,111.86
2952,111.86
2953,111.86
2954,111.86
2955,111.86
2956,111.86
2957,122.688
2958,263.992
2959,296.767
2960,556.406
2961,563.455
2962,577.651
2963,605.603
2964,611.105
2965,628.693
2966,623.32
2967,618.456
2968,603.305
2969,528.327
2970,375.592
2971,380.106
2972,336.874
2973,321.822
2974,122.688
2975,111.86
2976,111.86
2977,111.86
2978,111.86
2979,111.86
2980,111.86
2981,122.688
2982,256.362
2983,282.637
2984,516.676
2985,516.031
2986,531.466
2987,557.28
2988,556.648
2989,576.046
2990,577.413
2991,599.611
2992,622.858
2993,564.01
2994,387.394
2995,354.457
2996,311.148
2997,308.2
2998,122.688
2999,111.86
3000,111.86
3001,98.065
3002,98.065
3003,98.065
3004,98.065
3005,98.065
3006,251.516
3007,209.969
3008,307.804
3009,315.367
3010,320.901
3011,334.858
3012,336.316
3013,335.514
3014,234.663
3015,231.715
3016,234.14
3017,203.999
3018,150.099
3019,145.279
3020,123.734
3021,98.065
3022,98.065
3023,98.065
3024,98.065
3025,98.065
3026,98.065
3027,98.065
3028,98.065
3029,98.065
3030,82.789
3031,93.919
3032,133.781
3033,157.825
3034,138.612
3035,162.219
3036,139.174
3037,156.445
3038,141.103
3039,169.108
3040,147.201
3041,175.318
3042,148.65
3043,171.124
3044,112.797
3045,98.065
3046,98.065
3047,98.065
3048,98.065
3049,111.86
3050,111.86
3051,111.86
3052,111.86
3053,122.688
3054,252.005
3055,283.085
3056,531.122
3057,531.145
3058,543.852
3059,571.45
3060,571.689
3061,589.358
3062,597.938
3063,616.586
3064,632.193
3065,574.542
3066,409.26
3067,392.538
3068,352.887
3069,340.592
3070,122.688
3071,111.86
3072,111.86
3073,111.86
3074,111.86
3075,111.86
3076,111.86
3077,122.688
3078,276.773
3079,313.904
3080,579.666
3081,597.052
3082,614.791
3083,629.832
3084,632.919
3085,649.886
3086,637.104
3087,632.247
3088,620.72
3089,520.386
3090,361.93
3091,357.194
3092,338.708
3093,338.603
3094,122.688
3095,111.86
3096,111.86
3097,111.86
3098,111.86
3099,111.86
3100,111.86
3101,122.688
3102,261.212
3103,282.881
3104,523.194
3105,518.151
3106,538.038
3107,579.992
3108,576.835
3109,593.877
3110,595.084
3111,610.066
3112,628.376
3113,568.22
3114,400.445
3115,370.017
3116,326.964
3117,322.601
3118,122.688
3119,111.86
3120,111.86
3121,111.86
3122,111.86
3123,111.86
3124,111.86
3125,122.688
3126,257.643
3127,287.376
3128,558.687
3129,555.377
3130,559.84
3131,580.946
3132,583.305
3133,596.961
3134,588.962
3135,606.245
3136,620.324
3137,566.098
3138,399.38
3139,368.159
3140,327.569
3141,320.1
3142,122.688
3143,111.86
3144,111.86
3145,111.86
3146,111.86
3147,111.86
3148,111.86
3149,122.688
3150,258.129
3151,289.197
3152,553.494
3153,551.371
3154,567.24
3155,598.929
3156,585.381
3157,594.426
3158,596.885
3159,616.572
3160,620.533
3161,555.237
3162,400.453
3163,374.754
3164,332.855
3165,324.49
3166,122.688
3167,111.86
3168,111.86
3169,98.065
3170,98.065
3171,98.065
3172,98.065
3173,98.065
3174,257.102
3175,232.635
3176,343.876
3177,366.295
3178,381.652
3179,391.809
3180,390.89
3181,389.276
3182,282.165
3183,287.339
3184,290.137
3185,254.528
3186,165.057
3187,160.045
3188,98.065
3189,98.065
3190,98.065
3191,98.065
3192,98.065
3193,98.065
3194,98.065
3195,98.065
3196,98.065
3197,98.065
3198,82.789
3199,136.574
3200,164.008
3201,160.891
3202,190.087
3203,163.267
3204,196.098
3205,168.611
3206,200.074
3207,169.175
3208,200.205
3209,162.309
3210,189.259
3211,167.03
3212,128.988
3213,98.065
3214,124.135
3215,109.604
3216,98.065
3217,148.695
3218,111.86
3219,111.86
3220,111.86
3221,158.98
3222,271.635
3223,326.338
3224,587.102
3225,598.363
3226,617.133
3227,636.09
3228,627.597
3229,645.847
3230,645.871
3231,657.939
3232,679.308
3233,623.745
3234,458.51
3235,420.156
3236,373.916
3237,364.261
3238,122.688
3239,148.578
3240,125.156
3241,134.99
3242,139.344
3243,146.038
3244,111.86
3245,186.121
3246,270.929
3247,323.083
3248,604.426
3249,613.762
3250,627.763
3251,637.7
3252,626.035
3253,637.937
3254,643.243
3255,660.968
3256,669.26
3257,610.356
3258,442.904
3259,406.665
3260,363.999
3261,357.83
3262,122.688
3263,147.083
3264,111.86
3265,157.504
3266,131.146
3267,145.939
3268,132.18
3269,165.634
3270,263.362
3271,322.193
3272,604.571
3273,611.96
3274,624.486
3275,635.842
3276,618.712
3277,640.78
3278,635.729
3279,639.814
3280,652.032
3281,584.291
3282,415.523
3283,398.09
3284,358.974
3285,349.189
3286,122.688
3287,136.32
3288,122.796
3289,111.86
3290,179.331
3291,111.86
3292,135.386
3293,158.885
3294,263.164
3295,318.787
3296,608.57
3297,612.865
3298,620.916
3299,630.892
3300,620.521
3301,637.458
3302,646.552
3303,654.514
3304,659.624
3305,607.152
3306,434.303
3307,411.563
3308,368.943
3309,360.21
3310,122.688
3311,147.993
3312,111.86
3313,125.141
3314,135.086
3315,143.983
3316,111.86
3317,181.28
3318,260.598
3319,325.604
3320,615.452
3321,617.385
3322,631.684
3323,639.215
3324,627.337
3325,650.662
3326,654.935
3327,670.479
3328,683.506
3329,618.938
3330,452.309
3331,414.562
3332,373.127
3333,364.923
3334,122.688
3335,148.388
3336,111.86
3337,135.237
3338,98.065
3339,98.065
3340,98.065
3341,98.065
3342,288.998
3343,275.142
3344,379.701
3345,393.695
3346,396.253
3347,431.172
3348,433.446
3349,436.682
3350,322.532
3351,295.962
3352,278.833
3353,240.602
3354,70.36
3355,99.726
3356,98.065
3357,98.065
3358,98.065
3359,98.065
3360,98.065
3361,98.065
3362,98.065
3363,98.065
3364,98.065
3365,98.065
3366,75.15
3367,52.236
3368,141.766
3369,188.525
3370,179.833
3371,194.329
3372,179.843
3373,168.345
3374,156.726
3375,104.215
3376,52.236
3377,52.236
3378,52.236
3379,59.874
3380,98.065
3381,98.065
3382,98.065
3383,98.065
3384,98.065
3385,149.329
3386,111.86
3387,111.86
3388,111.86
3389,188.539
3390,268.71
3391,333.024
3392,590.661
3393,610.706
3394,628.605
3395,643.7
3396,600.914
3397,615.882
3398,638.469
3399,641.246
3400,618.815
3401,518.865
3402,361.895
3403,360.574
3404,341.615
3405,342.45
3406,122.688
3407,111.86
3408,111.86
3409,111.86
3410,111.86
3411,111.86
3412,111.86
3413,122.688
3414,274.3
3415,323.15
3416,616.524
3417,598.125
3418,603.168
3419,633.848
3420,637.697
3421,650.53
3422,607.524
3423,586.486
3424,566.709
3425,492.705
3426,364.855
3427,375.914
3428,356.579
3429,359.135
3430,122.688
3431,111.86
3432,111.86
3433,111.86
3434,111.86
3435,111.86
3436,111.86
3437,122.688
3438,257.99
3439,301.318
3440,590.749
3441,614.644
3442,629.956
3443,647.376
3444,635.791
3445,656.806
3446,669.768
3447,696.682
3448,613.425
3449,499.699
3450,367.005
3451,359.949
3452,337.781
3453,339.346
3454,122.688
3455,111.86
3456,111.86
3457,111.86
3458,111.86
3459,111.86
3460,111.86
3461,122.688
3462,264.141
3463,314.45
3464,595.26
3465,615.375
3466,617.287
3467,595.317
3468,527.732
3469,507.536
3470,502.827
3471,514.892
3472,523.562
3473,477.637
3474,355.688
3475,353.188
3476,343.859
3477,345.892
3478,122.688
3479,111.86
3480,111.86
3481,111.86
3482,111.86
3483,111.86
3484,111.86
3485,122.688
3486,257.547
3487,304.41
3488,526.577
3489,496.761
3490,489.225
3491,519.646
3492,527.789
3493,565.779
3494,558.325
3495,543.15
3496,558.197
3497,499.79
3498,354.396
3499,342.562
3500,330.65
3501,336.68
3502,122.688
3503,111.86
3504,111.86
3505,98.065
3506,98.065
3507,98.065
3508,98.065
3509,98.065
3510,260.182
3511,234.209
3512,343.538
3513,369.809
3514,375.566
3515,382.687
3516,386.517
3517,384.927
3518,277.558
3519,273.544
3520,276.041
3521,239.289
3522,164.04
3523,152.816
3524,98.065
3525,98.065
3526,98.065
3527,98.065
3528,98.065
3529,98.065
3530,98.065
3531,98.065
3532,98.065
3533,98.065
3534,75.15
3535,114.47
3536,143.381
3537,173.896
3538,152.706
3539,178.401
3540,154.02
3541,178.223
3542,157.45
3543,184.246
3544,159.758
3545,183.882
3546,155.522
3547,162.985
3548,112.472
3549,98.065
3550,98.065
3551,98.065
3552,98.065
3553,98.065
3554,98.065
3555,98.065
3556,98.065
3557,98.065
3558,75.15
3559,120.164
3560,158.533
3561,153.798
3562,166.89
3563,157.957
3564,169.835
3565,156.092
3566,165.573
3567,162.895
3568,174.585
3569,161.531
3570,166.211
3571,146.575
3572,105.236
3573,98.065
3574,98.065
3575,98.065
3576,98.065
3577,111.86
3578,111.86
3579,111.86
3580,111.86
3581,152.597
3582,251.555
3583,301.79
3584,583.953
3585,579.924
3586,594.824
3587,611.517
3588,600.964
3589,611.318
3590,604.675
3591,603.668
3592,608.71
3593,542.165
3594,376.285
3595,356.849
3596,334.838
3597,330.801
3598,122.688
3599,111.86
3600,111.86
3601,111.86
3602,111.86
3603,111.86
3604,111.86
3605,164.597
3606,251.791
3607,304.295
3608,575.563
3609,584.711
3610,592.539
3611,600.661
3612,597.143
3613,617.611
3614,610.464
3615,616.86
3616,628.262
3617,569.511
3618,402.39
3619,378.022
3620,350.385
3621,340.4
3622,122.688
3623,111.86
3624,123.33
3625,132.35
3626,111.86
3627,111.86
3628,111.86
3629,181.752
3630,247.231
3631,299.448
3632,567.866
3633,582.782
3634,590.42
3635,592.418
3636,566.969
3637,573.41
3638,586.268
3639,600.117
3640,613.781
3641,556.06
3642,394.694
3643,371.07
3644,342.36
3645,334.44
3646,122.688
3647,111.86
3648,111.86
3649,111.86
3650,111.86
3651,111.86
3652,111.86
3653,158.074
3654,239.459
3655,283.855
3656,548.317
3657,554.595
3658,561.159
3659,571.849
3660,561.928
3661,576.61
3662,570.158
3663,585.483
3664,602.736
3665,536.587
3666,377.234
3667,350.264
3668,322.022
3669,314.066
3670,122.688
3671,111.86
3672,111.86
3673,98.065
3674,98.065
3675,98.065
3676,98.065
3677,98.065
3678,238.878
3679,222.794
3680,330.75
3681,350.788
3682,354.261
3683,363.682
3684,364.131
3685,366.283
3686,257.075
3687,250.646
3688,252.415
3689,223.239
3690,158.478
3691,124.534
3692,98.065
3693,98.065
3694,98.065
3695,98.065
3696,98.065
3697,98.065
3698,98.065
3699,98.065
3700,98.065
3701,98.065
3702,75.15
3703,52.236
3704,151.975
3705,145.035
3706,177.307
3707,148.553
3708,172.75
3709,150.942
3710,186.069
3711,158.829
3712,181.993
3713,96.15
3714,52.236
3715,52.236
3716,98.065
3717,98.065
3718,98.065
3719,98.065
3720,98.065
3721,111.86
3722,144.998
3723,111.86
3724,111.86
3725,122.688
3726,268.608
3727,315.71
3728,588.261
3729,587.59
3730,603.294
3731,592.953
3732,556.199
3733,560.597
3734,554.941
3735,551.517
3736,549.395
3737,499.733
3738,364.515
3739,359.232
3740,345.413
3741,340.423
3742,122.688
3743,111.86
3744,111.86
3745,111.86
3746,111.86
3747,111.86
3748,111.86
3749,122.688
3750,259.649
3751,303.051
3752,554.374
3753,557.919
3754,572.357
3755,599.213
3756,598.961
3757,622.72
3758,627.272
3759,651.369
3760,675.72
3761,621.097
3762,454.44
3763,422.348
3764,380.335
3765,350.814
3766,122.688
3767,140.636
3768,111.86
3769,111.86
3770,111.86
3771,111.86
3772,111.86
3773,122.688
3774,252.478
3775,292.487
3776,569.384
3777,581.312
3778,597.593
3779,614.608
3780,612.55
3781,636.099
3782,637.469
3783,642.486
3784,652.216
3785,585.922
3786,425.387
3787,392.781
3788,360.329
3789,349.035
3790,122.688
3791,142.426
3792,111.86
3793,111.86
3794,111.86
3795,111.86
3796,111.86
3797,147.895
3798,239.904
3799,284.979
3800,556.065
3801,569.463
3802,587.015
3803,603.345
3804,592.081
3805,613.88
3806,626.817
3807,653.291
3808,675.643
3809,612.009
3810,420.143
3811,384.219
3812,350.165
3813,341.865
3814,133.556
3815,131.406
3816,141.605
3817,111.86
3818,164.229
3819,111.86
3820,111.86
3821,147.881
3822,242.904
3823,290.53
3824,565.498
3825,588.253
3826,613.49
3827,627.768
3828,617.755
3829,631.799
3830,631.704
3831,653.377
3832,677.176
3833,611.383
3834,441.017
3835,406.652
3836,368.67
3837,354.841
3838,144.357
3839,121.672
3840,142.086
3841,98.065
3842,98.065
3843,98.065
3844,98.065
3845,98.065
3846,256.267
3847,231.005
3848,348.422
3849,375.955
3850,400.903
3851,423.588
3852,431.558
3853,430.447
3854,307.563
3855,282.529
3856,253.013
3857,214.245
3858,120.337
3859,81.485
3860,98.065
3861,98.065
3862,98.065
3863,98.065
3864,98.065
3865,98.065
3866,98.065
3867,98.065
3868,98.065
3869,98.065
3870,75.15
3871,52.236
3872,52.236
3873,77.424
3874,141.267
3875,137.701
3876,171.873
3877,164.36
3878,169.95
3879,168.286
3880,189.967
3881,176.771
3882,184.06
3883,164.859
3884,144.169
3885,129.821
3886,98.065
3887,98.065
3888,98.065
3889,111.86
3890,111.86
3891,111.86
3892,111.86
3893,122.688
3894,257.582
3895,301.824
3896,591.302
3897,613.418
3898,637.298
3899,652.053
3900,600.978
3901,601.977
3902,614.799
3903,657.57
3904,638.316
3905,556.043
3906,419.656
3907,401.471
3908,371.705
3909,364.721
3910,122.688
3911,111.86
3912,111.86
3913,111.86
3914,111.86
3915,111.86
3916,111.86
3917,122.688
3918,258.325
3919,296.594
3920,565.884
3921,597.033
3922,618.636
3923,636.541
3924,627.255
3925,637.057
3926,631.364
3927,632.64
3928,650.742
3929,599.18
3930,423.807
3931,392.022
3932,356.05
3933,340.386
3934,122.688
3935,122.768
3936,131.228
3937,111.86
3938,111.86
3939,111.86
3940,111.86
3941,122.688
3942,253.621
3943,290.49
3944,563.878
3945,584.011
3946,608.997
3947,627.931
3948,618.974
3949,631.687
3950,630.615
3951,655.876
3952,669.738
3953,586.402
3954,420.327
3955,391.782
3956,356.615
3957,343.051
3958,122.688
3959,142.096
3960,111.86
3961,142.268
3962,111.86
3963,111.86
3964,121.876
3965,140.304
3966,256.362
3967,299.531
3968,550.824
3969,547.428
3970,579.453
3971,614.734
3972,611.531
3973,630.638
3974,633.216
3975,644.953
3976,661.169
3977,593.938
3978,430.127
3979,393.225
3980,356.802
3981,347.209
3982,122.688
3983,143.935
3984,123.229
3985,132.154
3986,111.86
3987,111.86
3988,111.86
3989,174.262
3990,249.49
3991,303.678
3992,584.293
3993,601.063
3994,619.88
3995,643.676
3996,633.716
3997,647.987
3998,616.115
3999,603.678
4000,637.14
4001,573.81
4002,417.168
4003,395.304
4004,360.941
4005,347.464
4006,122.688
4007,145.161
4008,111.86
4009,98.065
4010,98.065
4011,98.065
4012,133.298
4013,98.065
4014,265.054
4015,255.382
4016,346.104
4017,364.755
4018,400.312
4019,394.813
4020,379.779
4021,392.931
4022,281.946
4023,273.704
4024,272.813
4025,239.512
4026,118.608
4027,103.954
4028,130.763
4029,98.065
4030,98.065
4031,98.065
4032,98.065
4033,98.065
4034,98.065
4035,98.065
4036,98.065
4037,98.065
4038,75.15
4039,84.663
4040,171.412
4041,182.821
4042,169.592
4043,185.968
4044,173.101
4045,187.129
4046,176.862
4047,193.711
4048,180.257
4049,193.992
4050,174.17
4051,175.586
4052,160.047
4053,155.078
4054,119.448
4055,130.052
4056,109.812
4057,132.828
4058,144.046
4059,111.86
4060,142.4
4061,148.023
4062,250.407
4063,300.987
4064,590.023
4065,616.464
4066,631.369
4067,643.434
4068,638.096
4069,646.389
4070,647.711
4071,664.161
4072,686.468
4073,632.992
4074,464.206
4075,415.74
4076,362.956
4077,353.785
4078,133.998
4079,132.102
4080,149.414
4081,130.064
4082,144.149
4083,139.597
4084,140.728
4085,149.526
4086,252.842
4087,303.474
4088,591.152
4089,612.308
4090,631.515
4091,643.967
4092,638.917
4093,660.396
4094,662.295
4095,682.255
4096,701.898
4097,641.688
4098,468.323
4099,423.764
4100,370.419
4101,363.309
4102,173.589
4103,160.574
4104,148.701
4105,123.443
4106,132.794
4107,160.249
4108,122.041
4109,174.255
4110,255.319
4111,321.54
4112,621.268
4113,619.361
4114,640.902
4115,662.923
4116,648.034
4117,660.877
4118,668.142
4119,669.431
4120,669.604
4121,608.924
4122,434.953
4123,404.157
4124,357.482
4125,345.205
4126,122.688
4127,143.199
4128,111.86
4129,111.86
4130,167.224
4131,111.86
4132,111.86
4133,182.602
4134,255.726
4135,323.058
4136,608.116
4137,622.483
4138,629.157
4139,644.792
4140,660.49
4141,661.58
4142,630.123
4143,676.991
4144,687.262
4145,617.103
4146,448.439
4147,422.713
4148,385.219
4149,385.818
4150,175.75
4151,164.478
4152,157.851
4153,170.1
4154,111.86
4155,125.04
4156,134.892
4157,154.54
4158,266.68
4159,317.579
4160,614.929
4161,637.572
4162,651.101
4163,670.285
4164,629.962
4165,581.955
4166,548.056
4167,552.952
4168,566.042
4169,524.397
4170,389.106
4171,375.508
4172,351.233
4173,357.681
4174,122.688
4175,111.86
4176,111.86
4177,98.065
4178,98.065
4179,98.065
4180,98.065
4181,98.065
4182,271.348
4183,258.134
4184,365.253
4185,399.432
4186,425.381
4187,447.056
4188,447.943
4189,440.22
4190,333.857
4191,309.215
4192,268.705
4193,223.234
4194,52.236
4195,52.236
4196,90.427
4197,98.065
4198,98.065
4199,98.065
4200,98.065
4201,98.065
4202,98.065
4203,98.065
4204,98.065
4205,98.065
4206,75.15
4207,92.781
4208,178.959
4209,191.782
4210,184.597
4211,206.431
4212,189.969
4213,164.046
4214,63.363
4215,138.152
4216,171.68
4217,100.799
4218,52.236
4219,52.236
4220,90.427
4221,98.065
4222,98.065
4223,98.065
4224,98.065
4225,145.997
4226,111.86
4227,111.86
4228,111.86
4229,148.438
4230,271.645
4231,329.997
4232,621.702
4233,639.035
4234,660.193
4235,694.017
4236,683.731
4237,705.883
4238,709.831
4239,724.727
4240,741.102
4241,643.537
4242,426.704
4243,388.276
4244,368.85
4245,381.43
4246,178.295
4247,163.991
4248,156.73
4249,111.86
4250,151.943
4251,111.86
4252,111.86
4253,195.873
4254,268.229
4255,333.745
4256,629.635
4257,653.172
4258,666.58
4259,683.048
4260,680.99
4261,709.452
4262,704.662
4263,727.454
4264,753.857
4265,687.072
4266,514.21
4267,469.087
4268,407.906
4269,394.897
4270,178.425
4271,187.759
4272,184.592
4273,159.331
4274,133
4275,150.922
4276,111.86
4277,190.835
4278,277.206
4279,332.727
4280,630.951
4281,646.597
4282,666.799
4283,689.498
4284,682.004
4285,707.789
4286,712.754
4287,736.819
4288,749.062
4289,672.339
4290,479.937
4291,406.365
4292,331.542
4293,323.174
4294,122.688
4295,139.176
4296,111.86
4297,168.411
4298,111.86
4299,148.231
4300,141.908
4301,122.688
4302,269.938
4303,309.691
4304,595.932
4305,613.681
4306,633.955
4307,667.167
4308,666.987
4309,639.051
4310,578.661
4311,573.74
4312,612.702
4313,556.712
4314,408.732
4315,388.539
4316,347.91
4317,346.128
4318,122.688
4319,111.86
4320,111.86
4321,111.86
4322,145.283
4323,111.86
4324,111.86
4325,164.388
4326,252.542
4327,306.764
4328,609.725
4329,626.957
4330,632.645
4331,630.802
4332,623.195
4333,643.815
4334,626.469
4335,632.557
4336,621.298
4337,541.899
4338,387.716
4339,374.461
4340,351.311
4341,355.51
4342,122.688
4343,111.86
4344,111.86
4345,98.065
4346,98.065
4347,98.065
4348,98.065
4349,98.065
4350,281.145
4351,267.417
4352,364.33
4353,363.757
4354,366.581
4355,387.326
4356,402.544
4357,414.917
4358,310.848
4359,310.689
4360,313.051
4361,269.856
4362,171.876
4363,157.491
4364,140.6
4365,127.685
4366,98.065
4367,98.065
4368,98.065
4369,98.065
4370,98.065
4371,98.065
4372,98.065
4373,98.065
4374,75.15
4375,87.666
4376,175.572
4377,183.538
4378,174.381
4379,191.608
4380,178.145
4381,191.44
4382,180.958
4383,199.709
4384,186.624
4385,203.053
4386,181.214
4387,187.458
4388,186.675
4389,151.28
4390,141.244
4391,156.87
4392,110.856
4393,134.571
4394,111.86
4395,146.032
4396,111.86
4397,122.688
4398,276.237
4399,328.033
4400,623.639
4401,633.311
4402,649.043
4403,664.625
4404,648.901
4405,665.94
4406,670.415
4407,695.816
4408,720.732
4409,652.106
4410,456.007
4411,415.97
4412,374.117
4413,369.341
4414,148.017
4415,162.905
4416,134.835
4417,98.065
4418,135.669
4419,98.065
4420,98.065
4421,98.065
4422,75.15
4423,173.643
4424,178.661
4425,188.978
4426,186.479
4427,199.611
4428,192.379
4429,201.745
4430,199.826
4431,210.273
4432,198.399
4433,199.244
4434,188.943
4435,190.567
4436,207.004
4437,162.373
4438,178.956
4439,152.28
4440,150.493
4441,137.392
4442,123.092
4443,148.467
4444,139.188
4445,163.314
4446,270.253
4447,326.72
4448,629.618
4449,652.124
4450,660.511
4451,680.849
4452,646.561
4453,616.529
4454,613.494
4455,581.873
4456,574.692
4457,523.135
4458,365.9
4459,358.896
4460,338.533
4461,345.597
4462,122.688
4463,111.86
4464,111.86
4465,111.86
4466,111.86
4467,111.86
4468,111.86
4469,122.688
4470,266.268
4471,311.158
4472,587.317
4473,612.624
4474,623.916
4475,644.108
4476,592.482
4477,573.88
4478,558.479
4479,577.526
4480,599.593
4481,546.702
4482,402.351
4483,388.595
4484,350.682
4485,350.194
4486,122.688
4487,111.86
4488,111.86
4489,111.86
4490,111.86
4491,111.86
4492,111.86
4493,122.688
4494,269.646
4495,311.528
4496,581.734
4497,602.468
4498,620.181
4499,640.416
4500,633.969
4501,593.568
4502,542.43
4503,557.799
4504,613.742
4505,565.443
4506,415.159
4507,399.567
4508,355.335
4509,344.102
4510,122.688
4511,111.86
4512,111.86
4513,98.065
4514,98.065
4515,98.065
4516,98.065
4517,98.065
4518,268.409
4519,252.483
4520,367.012
4521,402.041
4522,414.661
4523,431.222
4524,432.012
4525,424.736
4526,319.074
4527,326.885
4528,299.32
4529,241.575
4530,52.236
4531,52.236
4532,90.427
4533,98.065
4534,98.065
4535,98.065
4536,98.065
4537,98.065
4538,98.065
4539,98.065
4540,98.065
4541,98.065
4542,75.15
4543,117.499
4544,160.246
4545,191.5
4546,141.206
4547,131.133
4548,165.656
4549,183.571
4550,154.868
4551,194.725
4552,175.164
4553,207.012
4554,178.133
4555,194.249
4556,115.178
4557,109.205
4558,134.015
4559,98.065
4560,98.065
4561,148.411
4562,111.86
4563,111.86
4564,111.86
4565,122.688
4566,278.687
4567,323.218
4568,621.476
4569,628.926
4570,641.807
4571,653.888
4572,646.382
4573,686.179
4574,700.35
4575,703.56
4576,720.54
4577,621.589
4578,394.13
4579,361.495
4580,339.638
4581,345.937
4582,122.688
4583,111.86
4584,111.86
4585,111.86
4586,111.86
4587,111.86
4588,111.86
4589,156.369
4590,269.845
4591,331.094
4592,635.194
4593,640.818
4594,658.809
4595,685.519
4596,681.289
4597,696.697
4598,663.497
4599,600.983
4600,581.09
4601,565.734
4602,456.358
4603,426.055
4604,381.489
4605,378.73
4606,122.688
4607,150.724
4608,111.86
4609,150.471
4610,111.86
4611,145.223
4612,111.86
4613,175.124
4614,279.398
4615,333.389
4616,625.732
4617,632.204
4618,659.142
4619,679.499
4620,668.565
4621,688.934
4622,694.902
4623,702.619
4624,714.694
4625,660.58
4626,483.018
4627,437.206
4628,384.16
4629,378.794
4630,159.796
4631,157.984
4632,124.254
4633,149.373
4634,143.762
4635,149.822
4636,123.445
4637,178.195
4638,283.919
4639,339.367
4640,646.736
4641,651.888
4642,660.681
4643,679.427
4644,678.869
4645,690.718
4646,685.418
4647,706.354
4648,725.799
4649,657.103
4650,480.565
4651,437.029
4652,380.827
4653,372.461
4654,168.275
4655,163.894
4656,169.954
4657,165.106
4658,168.662
4659,177.194
4660,138.051
4661,163.721
4662,290.949
4663,339.091
4664,645.905
4665,641.316
4666,654.386
4667,667.36
4668,656.537
4669,672.384
4670,674.581
4671,681.171
4672,686.119
4673,622.523
4674,461.481
4675,425.913
4676,378.751
4677,374.074
4678,179.027
4679,143.174
4680,111.86
4681,111.647
4682,122.293
4683,130.447
4684,98.065
4685,133.994
4686,278.692
4687,264.43
4688,375.173
4689,401.134
4690,417.496
4691,438.375
4692,409.371
4693,390.364
4694,303.004
4695,307.34
4696,310.127
4697,263.554
4698,168.482
4699,152.479
4700,144.01
4701,134.185
4702,98.065
4703,98.065
4704,98.065
4705,98.065
4706,98.065
4707,98.065
4708,98.065
4709,98.065
4710,82.789
4711,163.998
4712,113.826
4713,132.21
4714,97.924
4715,52.236
4716,52.236
4717,108.902
4718,179.72
4719,177.032
4720,172.459
4721,178.188
4722,162.082
4723,120.761
4724,146.56
4725,134.773
4726,98.065
4727,98.065
4728,98.065
4729,111.86
4730,111.86
4731,145.952
4732,111.86
4733,152.008
4734,260.844
4735,327.289
4736,604.22
4737,610.474
4738,609.378
4739,626.15
4740,625.586
4741,660.955
4742,659.468
4743,652.385
4744,649.067
4745,586.347
4746,428.449
4747,407.838
4748,373.038
4749,375.042
4750,154.081
4751,162.563
4752,151.306
4753,145.486
4754,111.86
4755,148.193
4756,111.86
4757,190.428
4758,274.207
4759,326.594
4760,608.592
4761,613.799
4762,626.225
4763,656.698
4764,641.177
4765,660.751
4766,655.438
4767,662.923
4768,679.983
4769,612.659
4770,447.274
4771,413.874
4772,369.559
4773,366.742
4774,152.82
4775,161.074
4776,149.534
4777,141.066
4778,124.811
4779,145.668
4780,131.329
4781,166.378
4782,272.762
4783,331.991
4784,635.776
4785,636.003
4786,640.557
4787,655.199
4788,647.946
4789,661.277
4790,652.09
4791,668.174
4792,688.935
4793,626.859
4794,462.918
4795,423.79
4796,378.413
4797,365.262
4798,151.733
4799,159.924
4800,171.782
4801,123.2
4802,173.558
4803,111.86
4804,146.978
4805,172.499
4806,267.554
4807,328.371
4808,621.152
4809,617.31
4810,626.217
4811,656.066
4812,650.585
4813,672.13
4814,662.762
4815,670.844
4816,682.245
4817,621.326
4818,451.535
4819,410.313
4820,370.038
4821,355.875
4822,134.489
4823,156.764
4824,145.706
4825,111.86
4826,171.781
4827,111.86
4828,177.384
4829,135.745
4830,276.153
4831,325.894
4832,606.169
4833,611.524
4834,635.199
4835,663.324
4836,653.45
4837,664.707
4838,663.295
4839,677.302
4840,688.751
4841,621.142
4842,448.028
4843,414.652
4844,374.632
4845,364.175
4846,135.593
4847,159.828
4848,140.855
4849,98.065
4850,132.382
4851,98.065
4852,98.065
4853,98.065
4854,292.763
4855,259.951
4856,369.997
4857,417.375
4858,438.744
4859,454.373
4860,459.536
4861,448.26
4862,323.69
4863,330.775
4864,330.343
4865,278.065
4866,156.726
4867,152.863
4868,149.788
4869,142.999
4870,120.326
4871,135.945
4872,98.065
4873,98.065
4874,98.065
4875,98.065
4876,98.065
4877,98.065
4878,82.789
4879,105.032
4880,182.372
4881,193.802
4882,185.343
4883,207.263
4884,189.066
4885,196.823
4886,150.991
4887,117.334
4888,157.729
4889,180.058
4890,121.323
4891,96.676
4892,119.874
4893,107.865
4894,98.065
4895,98.065
4896,98.065
4897,111.86
4898,111.86
4899,111.86
4900,111.86
4901,122.688
4902,278.305
4903,318.206
4904,595.729
4905,615.455
4906,624.853
4907,651.557
4908,650.751
4909,673.847
4910,684.413
4911,612.055
4912,558.906
4913,527.43
4914,411.692
4915,363.473
4916,327.457
4917,326.253
4918,122.688
4919,111.86
4920,111.86
4921,111.86
4922,111.86
4923,111.86
4924,111.86
4925,122.688
4926,282.419
4927,322.244
4928,598.815
4929,612.573
4930,627.175
4931,650.322
4932,608.856
4933,611.08
4934,636.865
4935,604.702
4936,552.762
4937,497.603
4938,375.346
4939,375.038
4940,358.714
4941,356.334
4942,122.688
4943,111.86
4944,111.86
4945,111.86
4946,111.86
4947,111.86
4948,111.86
4949,122.688
4950,283.829
4951,325.64
4952,599.541
4953,615.414
4954,630.173
4955,654.447
4956,651.475
4957,671.651
4958,672.643
4959,682.078
4960,681.931
4961,605.1
4962,436.968
4963,409.126
4964,372.072
4965,354.962
4966,122.688
4967,146.995
4968,111.86
4969,146.522
4970,111.86
4971,111.86
4972,134.061
4973,159.089
4974,274.92
4975,327.894
4976,618.472
4977,621.047
4978,640.328
4979,655.999
4980,652.363
4981,680.466
4982,677.392
4983,686.213
4984,703.365
4985,634.779
4986,448.538
4987,418.932
4988,384.094
4989,367.928
4990,148.515
4991,168.341
4992,123.855
4993,148.936
4994,148.584
4995,135.954
4996,135.876
4997,165.208
4998,285.02
4999,326.25
5000,603.613
5001,631.489
5002,640.812
5003,658.227
5004,656.645
5005,674.322
5006,668.907
5007,676.6
5008,669.284
5009,615.515
5010,457.995
5011,418.447
5012,377.12
5013,364.784
5014,136.326
5015,135.409
5016,125.112
5017,121.312
5018,98.065
5019,98.065
5020,98.065
5021,98.065
5022,290.418
5023,272.721
5024,391.788
5025,422.73
5026,426.287
5027,442.68
5028,454.453
5029,444.38
5030,327.394
5031,333.661
5032,327.911
5033,287.809
5034,178.838
5035,165.099
5036,156.581
5037,135.533
5038,135.832
5039,98.065
5040,98.065
5041,98.065
5042,98.065
5043,98.065
5044,98.065
5045,98.065
5046,82.789
5047,154.101
5048,185.066
5049,170.505
5050,186.982
5051,180.837
5052,191.787
5053,184.368
5054,193.265
5055,185.301
5056,196.878
5057,188.777
5058,190.071
5059,165.423
5060,190.437
5061,147.656
5062,152.928
5063,152.261
5064,130.281
5065,160.267
5066,124.736
5067,134.793
5068,111.86
5069,180.986
5070,278.097
5071,326.593
5072,622.416
5073,628.88
5074,649.318
5075,672.668
5076,657.016
5077,684.563
5078,685.627
5079,685.679
5080,698.885
5081,632.563
5082,468.159
5083,428.239
5084,382.129
5085,367.042
5086,135.215
5087,133.788
5088,145.202
5089,140.612
5090,123.367
5091,132.335
5092,139.612
5093,154.173
5094,269.115
5095,311.911
5096,591.297
5097,601.643
5098,620.91
5099,655.952
5100,580.979
5101,553.162
5102,556.163
5103,591.177
5104,627.767
5105,574.965
5106,422.146
5107,374.466
5108,333.931
5109,328.103
5110,122.688
5111,111.86
5112,111.86
5113,111.86
5114,111.86
5115,111.86
5116,111.86
5117,122.688
5118,277.472
5119,304.748
5120,580.797
5121,604.117
5122,614.213
5123,641.404
5124,633.191
5125,588.094
5126,528.912
5127,524.996
5128,536.322
5129,491.247
5130,355.725
5131,346.385
5132,338.486
5133,340.529
5134,122.688
5135,111.86
5136,111.86
5137,111.86
5138,111.86
5139,111.86
5140,111.86
5141,122.688
5142,282.872
5143,306.748
5144,559.374
5145,580.838
5146,604.639
5147,623.907
5148,621.319
5149,640.312
5150,640.222
5151,652.274
5152,669.829
5153,610.611
5154,442.98
5155,410.339
5156,372.205
5157,362.994
5158,147.128
5159,148.392
5160,111.86
5161,111.86
5162,148.024
5163,111.86
5164,111.86
5165,147.102
5166,281.964
5167,317.6
5168,575.721
5169,562.797
5170,570.46
5171,619.499
5172,621.203
5173,641.731
5174,633.708
5175,651.701
5176,670.173
5177,610.784
5178,448.652
5179,414.304
5180,369.236
5181,359.497
5182,146.335
5183,132.304
5184,163.163
5185,98.065
5186,98.065
5187,98.065
5188,98.065
5189,98.065
5190,282.603
5191,249.17
5192,351.816
5193,373.568
5194,399.202
5195,428.743
5196,435.422
5197,431.39
5198,319.051
5199,293.05
5200,265.262
5201,237.329
5202,166.651
5203,132.309
5204,133.47
5205,157.464
5206,111.39
5207,121.341
5208,98.065
5209,98.065
5210,98.065
5211,98.065
5212,98.065
5213,98.065
5214,90.427
5215,52.236
5216,187.207
5217,169.545
5218,183.835
5219,172.596
5220,188.011
5221,173.864
5222,183.146
5223,171.136
5224,184.349
5225,167.672
5226,178.785
5227,141.427
5228,127.181
5229,132.628
5230,98.065
5231,98.065
5232,132.906
5233,111.86
5234,137.03
5235,123.042
5236,111.86
5237,184.185
5238,268.346
5239,311.72
5240,577.908
5241,608.481
5242,627.167
5243,635.4
5244,624.4
5245,645.143
5246,653.888
5247,670.535
5248,678.185
5249,601.743
5250,430.514
5251,398.455
5252,364.44
5253,358.399
5254,122.688
5255,145.948
5256,111.86
5257,176.253
5258,111.86
5259,147.008
5260,142.129
5261,158.075
5262,285.633
5263,321.051
5264,600.798
5265,603.682
5266,613.066
5267,633.353
5268,640.094
5269,662.247
5270,662.655
5271,668.051
5272,669.42
5273,611.009
5274,449.961
5275,421.658
5276,374.421
5277,361.367
5278,151.071
5279,158.629
5280,163.174
5281,154.09
5282,135.423
5283,136.86
5284,148.427
5285,150.998
5286,277.546
5287,320.668
5288,610.058
5289,612.817
5290,622.393
5291,647.077
5292,647.853
5293,657.067
5294,654.575
5295,667.689
5296,684.947
5297,621.311
5298,442.042
5299,416.6
5300,379.649
5301,370.791
5302,174.01
5303,160.475
5304,150.141
5305,126.069
5306,168.574
5307,125.469
5308,135.637
5309,183.051
5310,277.397
5311,326.49
5312,616.814
5313,626.911
5314,636.823
5315,658.981
5316,655.355
5317,676.648
5318,679.275
5319,686.774
5320,694.533
5321,628.903
5322,453.032
5323,426.298
5324,383.614
5325,373.859
5326,171.992
5327,151.168
5328,174.965
5329,155.028
5330,144.026
5331,153.855
5332,171.997
5333,181.453
5334,275.791
5335,327.702
5336,614.457
5337,611.537
5338,627.996
5339,647.748
5340,645.903
5341,673.576
5342,664.445
5343,643.487
5344,587.137
5345,503.743
5346,367.764
5347,368.353
5348,343.83
5349,341.8
5350,122.688
5351,111.86
5352,111.86
5353,98.065
5354,98.065
5355,98.065
5356,98.065
5357,98.065
5358,297.192
5359,268.046
5360,376.627
5361,398.323
5362,410.595
5363,441.929
5364,444.557
5365,433.013
5366,323.666
5367,335.632
5368,335.333
5369,265.279
5370,102.996
5371,95.976
5372,119.815
5373,98.065
5374,98.065
5375,98.065
5376,98.065
5377,98.065
5378,98.065
5379,98.065
5380,98.065
5381,98.065
5382,90.427
5383,52.236
5384,75.807
5385,204.949
5386,171.233
5387,199.953
5388,175.667
5389,206.674
5390,180.123
5391,209.185
5392,186.068
5393,214.243
5394,175.061
5395,201.043
5396,184.011
5397,198.408
5398,164.02
5399,179.541
5400,155.293
5401,171.881
5402,184.418
5403,175.902
5404,145.396
5405,165.768
5406,294.949
5407,331.946
5408,609.318
5409,626.947
5410,641.314
5411,667.7
5412,664.78
5413,683.489
5414,681.126
5415,697.509
5416,706.019
5417,643.362
5418,471.404
5419,430.477
5420,380.37
5421,371.367
5422,176.143
5423,174.459
5424,178.649
5425,177.23
5426,170.673
5427,145.911
5428,153.377
5429,182.732
5430,285.176
5431,332.391
5432,626.507
5433,627.8
5434,637.332
5435,663.571
5436,662.902
5437,675.485
5438,672.015
5439,679.92
5440,685.592
5441,629.265
5442,459.475
5443,429.903
5444,381.314
5445,372.174
5446,178.067
5447,171.569
5448,173.922
5449,150.669
5450,154.144
5451,167.627
5452,120.945
5453,175.095
5454,283.434
5455,331.821
5456,629.237
5457,627.047
5458,642.227
5459,668.598
5460,667.612
5461,684.984
5462,678.863
5463,700.551
5464,712.466
5465,632.954
5466,450.182
5467,424.215
5468,381.375
5469,370.483
5470,178.465
5471,174.935
5472,173.997
5473,174.952
5474,168.212
5475,155.364
5476,154.179
5477,187.575
5478,285.332
5479,330.497
5480,625.408
5481,629.493
5482,651.191
5483,678.831
5484,673.213
5485,697.329
5486,692.857
5487,699.447
5488,712.81
5489,648.272
5490,474.033
5491,431.441
5492,382.503
5493,372.242
5494,179.113
5495,176.243
5496,183.706
5497,179.562
5498,175.722
5499,160.354
5500,177.302
5501,184.748
5502,274.403
5503,329.21
5504,615.351
5505,627.844
5506,639.45
5507,661.391
5508,676.065
5509,708.377
5510,715.9
5511,724.53
5512,666.251
5513,562.027
5514,440.837
5515,434.63
5516,390.356
5517,378.372
5518,173.047
5519,148.55
5520,111.86
5521,98.065
5522,134.693
5523,98.065
5524,98.065
5525,98.065
5526,296.504
5527,266.618
5528,382.04
5529,414.973
5530,430.592
5531,455.067
5532,459.786
5533,409.383
5534,264.843
5535,275.679
5536,304.651
5537,249.28
5538,52.236
5539,59.874
5540,98.065
5541,98.065
5542,98.065
5543,98.065
5544,98.065
5545,98.065
5546,98.065
5547,98.065
5548,98.065
5549,98.065
5550,90.427
5551,88.956
5552,170.521
5553,185.722
5554,176.01
5555,193.818
5556,184.226
5557,205.485
5558,188.518
5559,188.584
5560,154.359
5561,175.165
5562,156.827
5563,139.756
5564,158.689
5565,155.315
5566,157.469
5567,122.367
5568,162.649
5569,111.86
5570,111.86
5571,111.86
5572,111.86
5573,156.782
5574,283.996
5575,314.804
5576,584.449
5577,598.856
5578,619.424
5579,653.427
5580,651.693
5581,699.86
5582,735.979
5583,750.593
5584,757.757
5585,676.549
5586,493.919
5587,460.221
5588,391.647
5589,376.718
5590,178.635
5591,166.437
5592,157.504
5593,111.86
5594,179.26
5595,151.856
5596,130.941
5597,160.623
5598,305.015
5599,341.139
5600,600.526
5601,565.554
5602,545.832
5603,552.225
5604,558.439
5605,600.765
5606,605.795
5607,604.906
5608,624.814
5609,592.734
5610,442.005
5611,423.645
5612,374.885
5613,364.61
5614,122.688
5615,111.86
5616,111.86
5617,111.86
5618,111.86
5619,149.345
5620,111.86
5621,155.866
5622,291.532
5623,324.786
5624,580.122
5625,595.696
5626,583.02
5627,571.498
5628,563.293
5629,598.492
5630,638.052
5631,593.664
5632,557.307
5633,502.939
5634,371.214
5635,377.241
5636,351.495
5637,351.821
5638,122.688
5639,111.86
5640,111.86
5641,111.86
5642,111.86
5643,111.86
5644,111.86
5645,122.688
5646,292.036
5647,307.807
5648,535.185
5649,517.293
5650,517.608
5651,530.024
5652,535.298
5653,569.006
5654,576.046
5655,598.757
5656,609.95
5657,548.575
5658,400.383
5659,385.816
5660,341.112
5661,336.062
5662,122.688
5663,111.86
5664,111.86
5665,111.86
5666,111.86
5667,111.86
5668,111.86
5669,122.688
5670,290.783
5671,305.192
5672,551.333
5673,562.513
5674,595.645
5675,624.596
5676,637.769
5677,656.125
5678,653.994
5679,666.157
5680,677.389
5681,604.558
5682,431.779
5683,414.98
5684,363.675
5685,355.043
5686,146.026
5687,167.546
5688,122.563
5689,98.065
5690,98.065
5691,98.065
5692,98.065
5693,98.065
5694,293.86
5695,250.77
5696,358.436
5697,379.689
5698,399.099
5699,431.828
5700,434.758
5701,439.994
5702,320.114
5703,326.388
5704,336.128
5705,291.945
5706,178.583
5707,177.908
5708,154.492
5709,121.848
5710,162.932
5711,98.065
5712,134.494
5713,98.065
5714,98.065
5715,98.065
5716,98.065
5717,98.065
5718,98.065
5719,58.323
5720,189.147
5721,171.359
5722,187.722
5723,184.738
5724,204.039
5725,193.097
5726,209.384
5727,194.527
5728,199.218
5729,175.873
5730,180.166
5731,171.849
5732,168.863
5733,162.469
5734,140.489
5735,146.73
5736,149.595
5737,111.86
5738,143.469
5739,123.175
5740,132.289
5741,180.671
5742,268.155
5743,303.001
5744,584.964
5745,612.088
5746,630.223
5747,650.575
5748,656.07
5749,671.358
5750,673.846
5751,688.231
5752,688.878
5753,623.173
5754,448.689
5755,420.631
5756,366.224
5757,355.976
5758,150.778
5759,158.866
5760,171.018
5761,123.182
5762,148.582
5763,136.513
5764,148.013
5765,146.916
5766,299.259
5767,332.217
5768,616.04
5769,620.957
5770,648.895
5771,673.153
5772,665.087
5773,679.226
5774,684.666
5775,700.138
5776,708.955
5777,631.342
5778,443.06
5779,422.231
5780,373.83
5781,364.259
5782,169.244
5783,148.927
5784,131.102
5785,155.064
5786,111.86
5787,135.918
5788,152.427
5789,122.688
5790,300.781
5791,321.447
5792,603.707
5793,612.891
5794,639.286
5795,668.577
5796,671.483
5797,682.003
5798,673.422
5799,673.393
5800,622.076
5801,543.13
5802,408.637
5803,396.421
5804,348.862
5805,342.038
5806,122.688
5807,111.86
5808,111.86
5809,111.86
5810,111.86
5811,111.86
5812,111.86
5813,133.721
5814,288.572
5815,320.12
5816,582.743
5817,574.479
5818,609.346
5819,658.788
5820,651.597
5821,667.48
5822,673.93
5823,680.732
5824,686.255
5825,609.94
5826,439.025
5827,435.072
5828,377.604
5829,366.439
5830,147.48
5831,156.346
5832,135.624
5833,137.256
5834,123.101
5835,164.604
5836,123.206
5837,171.563
5838,275.839
5839,318.96
5840,597.275
5841,605.665
5842,628.923
5843,652.632
5844,669.082
5845,662.546
5846,637.357
5847,695.981
5848,690.258
5849,593.301
5850,429.795
5851,428.337
5852,376.446
5853,371.188
5854,153.232
5855,141.646
5856,149.453
5857,98.065
5858,98.065
5859,98.065
5860,98.065
5861,98.065
5862,306.32
5863,269.507
5864,382.745
5865,405.81
5866,375.284
5867,364.594
5868,376.23
5869,408.597
5870,310.227
5871,271.991
5872,260.805
5873,248.642
5874,109.613
5875,113.853
5876,98.065
5877,98.065
5878,98.065
5879,98.065
5880,98.065
5881,98.065
5882,98.065
5883,98.065
5884,98.065
5885,98.065
5886,98.065
5887,89.957
5888,180.369
5889,192.352
5890,182.208
5891,200.298
5892,191.643
5893,207.869
5894,193.43
5895,210.524
5896,194.6
5897,205.469
5898,181.84
5899,212.063
5900,166.653
5901,145.19
5902,147.874
5903,161.111
5904,133.105
5905,98.065
5906,165.769
5907,98.065
5908,98.065
5909,98.065
5910,98.065
5911,90.607
5912,177.301
5913,192.381
5914,177.653
5915,197.167
5916,188.373
5917,210.064
5918,192.116
5919,209.183
5920,188.959
5921,195.197
5922,174.79
5923,198.487
5924,174.922
5925,167.131
5926,150.854
5927,129.086
5928,119.144
5929,166.582
5930,135.024
5931,122.206
5932,145.807
5933,146.485
5934,285.633
5935,318.477
5936,608.933
5937,620.346
5938,639.955
5939,670.082
5940,672.875
5941,666.316
5942,628.193
5943,595.299
5944,595.638
5945,571.532
5946,421.711
5947,419.311
5948,370.505
5949,361.803
5950,122.688
5951,111.86
5952,111.86
5953,137.43
5954,123.203
5955,111.86
5956,111.86
5957,153.598
5958,284.74
5959,312.615
5960,585.369
5961,615.942
5962,651.159
5963,678.547
5964,679.816
5965,703.147
5966,636.784
5967,575.808
5968,594.596
5969,577.133
5970,410.555
5971,404.711
5972,355.693
5973,351.131
5974,122.688
5975,111.86
5976,111.86
5977,111.86
5978,111.86
5979,111.86
5980,111.86
5981,122.688
5982,295.125
5983,309.194
5984,581.898
5985,608.697
5986,643.368
5987,675.723
5988,673.022
5989,695.891
5990,704.041
5991,636.405
5992,577.511
5993,501.234
5994,352.993
5995,365.818
5996,329.224
5997,332.792
5998,122.688
5999,111.86
6000,111.86
6001,111.86
6002,111.86
6003,111.86
6004,111.86
6005,122.688
6006,283.084
6007,305.565
6008,582.062
6009,611.033
6010,631.763
6011,661.322
6012,664.381
6013,677.13
6014,675.424
6015,667.977
6016,671.942
6017,602.813
6018,423.415
6019,411.401
6020,353.603
6021,347.848
6022,122.688
6023,145.48
6024,111.86
6025,98.065
6026,98.065
6027,98.065
6028,98.065
6029,98.065
6030,290.227
6031,253.761
6032,361.84
6033,398.219
6034,430.711
6035,459.221
6036,459.614
6037,456.318
6038,342.635
6039,338.897
6040,337.369
6041,292.127
6042,179.075
6043,191.107
6044,155.934
6045,125.345
6046,160.044
6047,98.065
6048,98.065
6049,98.065
6050,98.065
6051,98.065
6052,98.065
6053,98.065
6054,98.065
6055,52.236
6056,189.298
6057,167.924
6058,195.569
6059,187.912
6060,206.875
6061,189.616
6062,209.438
6063,188.326
6064,203.226
6065,181.408
6066,187.628
6067,179.625
6068,183.188
6069,125.323
6070,130.945
6071,98.065
6072,98.065
6073,146.337
6074,111.86
6075,111.86
6076,111.86
6077,184.607
6078,269.517
6079,312.262
6080,579.422
6081,600.587
6082,642.836
6083,673.052
6084,671.095
6085,689.364
6086,689.218
6087,711.465
6088,720.748
6089,622.295
6090,434.234
6091,435.775
6092,374.403
6093,361.945
6094,146.754
6095,162.776
6096,135.181
6097,137.745
6098,134.81
6099,132.132
6100,148.374
6101,151.9
6102,288.568
6103,321.91
6104,588.773
6105,601.044
6106,634.389
6107,661.546
6108,661.442
6109,685.07
6110,685.367
6111,637.464
6112,632.492
6113,606.831
6114,426.639
6115,415.813
6116,359.032
6117,358.386
6118,122.688
6119,124.698
6120,134.634
6121,111.86
6122,168.992
6123,121.277
6124,146.19
6125,149.052
6126,291.066
6127,323.279
6128,592.711
6129,594.483
6130,647.013
6131,673.66
6132,662.98
6133,681.122
6134,688.277
6135,705.349
6136,696.634
6137,613.188
6138,437.083
6139,429.306
6140,364.355
6141,356.359
6142,135.105
6143,157.693
6144,135.638
6145,122.457
6146,123.748
6147,161.186
6148,111.86
6149,132.588
6150,281.836
6151,309.173
6152,577.969
6153,602.825
6154,634.404
6155,656.824
6156,660.089
6157,669.086
6158,636.642
6159,589.156
6160,560.14
6161,505.377
6162,369.81
6163,390.275
6164,344.33
6165,343.13
6166,122.688
6167,111.86
6168,111.86
6169,111.86
6170,111.86
6171,111.86
6172,111.86
6173,122.688
6174,287.983
6175,314.827
6176,544.043
6177,525.412
6178,537.558
6179,605.945
6180,625.987
6181,645.936
6182,634.68
6183,643.433
6184,644.254
6185,581.326
6186,410.665
6187,415.643
6188,357.465
6189,350.192
6190,122.688
6191,111.86
6192,111.86
6193,98.065
6194,98.065
6195,98.065
6196,98.065
6197,98.065
6198,286.983
6199,257.393
6200,352.408
6201,369.987
6202,377.364
6203,411.565
6204,426.206
6205,424.813
6206,318.668
6207,314.968
6208,307.845
6209,259.102
6210,167.524
6211,153.381
6212,98.065
6213,98.065
6214,98.065
6215,98.065
6216,98.065
6217,98.065
6218,98.065
6219,98.065
6220,98.065
6221,98.065
6222,98.065
6223,59.874
6224,167.682
6225,185.666
6226,188.7
6227,200.829
6228,199.156
6229,208.801
6230,201.877
6231,202.263
6232,173.297
6233,179.433
6234,158.68
6235,141.493
6236,108.057
6237,98.065
6238,132.007
6239,98.065
6240,98.065
6241,111.86
6242,111.86
6243,111.86
6244,111.86
6245,122.688
6246,297.007
6247,322.656
6248,579.699
6249,611.738
6250,635.93
6251,649.278
6252,661.787
6253,641.849
6254,599.858
6255,593.22
6256,601.779
6257,549.846
6258,383.304
6259,403.367
6260,352.488
6261,339.9
6262,122.688
6263,111.86
6264,111.86
6265,111.86
6266,111.86
6267,111.86
6268,111.86
6269,122.688
6270,298.728
6271,332.869
6272,568.044
6273,564.053
6274,591.308
6275,571.556
6276,530.887
6277,543.263
6278,535.839
6279,528.456
6280,546.532
6281,504.971
6282,365.121
6283,395.35
6284,347.896
6285,344.91
6286,122.688
6287,111.86
6288,111.86
6289,111.86
6290,111.86
6291,111.86
6292,111.86
6293,122.688
6294,285.041
6295,317.726
6296,551.657
6297,552.842
6298,569.861
6299,590.892
6300,596.203
6301,582.229
6302,540.381
6303,539.963
6304,561.765
6305,524.907
6306,383.794
6307,417.588
6308,348.351
6309,337.172
6310,122.688
6311,111.86
6312,111.86
6313,111.86
6314,111.86
6315,111.86
6316,111.86
6317,122.688
6318,299.861
6319,337.145
6320,575.155
6321,531.53
6322,498.723
6323,506.07
6324,510.596
6325,518.006
6326,511.803
6327,514.385
6328,529.025
6329,489.529
6330,368.703
6331,404.462
6332,358.475
6333,360.175
6334,122.688
6335,111.86
6336,111.86
6337,111.86
6338,111.86
6339,111.86
6340,111.86
6341,122.688
6342,294.706
6343,336.916
6344,568.792
6345,573.802
6346,605.605
6347,633.171
6348,628.199
6349,642.899
6350,646.733
6351,654.872
6352,662.262
6353,582.47
6354,411.078
6355,422.973
6356,360.867
6357,360.027
6358,122.688
6359,111.86
6360,111.86
6361,98.065
6362,98.065
6363,98.065
6364,98.065
6365,98.065
6366,294.514
6367,261.495
6368,350.429
6369,383.325
6370,420.803
6371,447.369
6372,453.16
6373,415.634
6374,263.985
6375,248.664
6376,260.236
6377,225.996
6378,52.236
6379,90.427
6380,98.065
6381,98.065
6382,98.065
6383,98.065
6384,98.065
6385,98.065
6386,98.065
6387,98.065
6388,98.065
6389,98.065
6390,98.065
6391,59.874
6392,52.236
6393,160.172
6394,182.747
6395,162.842
6396,201.474
6397,176.183
6398,205.127
6399,170.196
6400,189.768
6401,161.214
6402,161.177
6403,133.121
6404,133.501
6405,98.065
6406,98.065
6407,98.065
6408,98.065
6409,111.86
6410,111.86
6411,111.86
6412,111.86
6413,122.688
6414,282.818
6415,308.232
6416,560.595
6417,588.869
6418,627.087
6419,650.058
6420,645.401
6421,665.061
6422,669.921
6423,684.86
6424,676.395
6425,603.597
6426,424.539
6427,428.453
6428,357.793
6429,351.799
6430,122.688
6431,144.538
6432,111.86
6433,111.86
6434,111.86
6435,111.86
6436,111.86
6437,142.432
6438,276.27
6439,312.962
6440,558.438
6441,585.854
6442,633.016
6443,676.854
6444,681.708
6445,709.231
6446,647.653
6447,619.588
6448,699.21
6449,615.877
6450,420.071
6451,432.464
6452,367.642
6453,356.959
6454,122.688
6455,111.86
6456,111.86
6457,111.86
6458,111.86
6459,111.86
6460,111.86
6461,144.136
6462,284.209
6463,319.215
6464,579.979
6465,607.715
6466,637.638
6467,676.617
6468,665.041
6469,679.151
6470,687.461
6471,702.955
6472,715.229
6473,628.059
6474,437.112
6475,441.42
6476,362.796
6477,354.086
6478,122.688
6479,144.987
6480,111.86
6481,111.86
6482,111.86
6483,111.86
6484,111.86
6485,153.57
6486,286.191
6487,322.44
6488,578.697
6489,602.935
6490,613.277
6491,587.264
6492,557.203
6493,558.074
6494,542.57
6495,541.323
6496,565.077
6497,529.607
6498,373.159
6499,404.992
6500,348.142
6501,341.642
6502,122.688
6503,111.86
6504,111.86
6505,111.86
6506,111.86
6507,111.86
6508,111.86
6509,122.688
6510,288.335
6511,314.129
6512,540.33
6513,544.943
6514,572.999
6515,577.767
6516,555.455
6517,569.989
6518,551.401
6519,553.562
6520,565.876
6521,519.759
6522,372.607
6523,408.404
6524,355.347
6525,356.33
6526,122.688
6527,111.86
6528,111.86
6529,98.065
6530,98.065
6531,98.065
6532,98.065
6533,98.065
6534,293.75
6535,265.314
6536,366.728
6537,397.975
6538,423.109
6539,431.568
6540,432.587
6541,414.658
6542,302.073
6543,294.84
6544,277.019
6545,226.245
6546,63.714
6547,118.712
6548,98.065
6549,98.065
6550,98.065
6551,98.065
6552,98.065
6553,98.065
6554,98.065
6555,98.065
6556,98.065
6557,98.065
6558,98.065
6559,116.218
6560,177.687
6561,173.344
6562,168.95
6563,185.257
6564,174.487
6565,193.229
6566,175.772
6567,188.822
6568,172.964
6569,185.557
6570,161.13
6571,138.466
6572,98.065
6573,98.065
6574,98.065
6575,98.065
6576,98.065
6577,111.86
6578,111.86
6579,111.86
6580,111.86
6581,122.688
6582,289.68
6583,317.248
6584,558.912
6585,557.19
6586,570.808
6587,599.472
6588,620.447
6589,653.922
6590,658.726
6591,667.06
6592,673.644
6593,592.88
6594,406.011
6595,420.161
6596,345.463
6597,335.616
6598,122.688
6599,111.86
6600,111.86
6601,111.86
6602,111.86
6603,111.86
6604,111.86
6605,122.688
6606,284.243
6607,309.395
6608,546.382
6609,565.193
6610,600.609
6611,630.278
6612,623.736
6613,650.113
6614,651.118
6615,654.941
6616,645.14
6617,569.857
6618,401.513
6619,424.299
6620,351.985
6621,343.83
6622,122.688
6623,111.86
6624,111.86
6625,111.86
6626,111.86
6627,111.86
6628,111.86
6629,122.688
6630,291.167
6631,313.356
6632,557.19
6633,570.993
6634,595.193
6635,620.004
6636,617.11
6637,638.57
6638,644.916
6639,661.203
6640,663.437
6641,582.252
6642,402.36
6643,416.965
6644,344.072
6645,340.582
6646,122.688
6647,111.86
6648,111.86
6649,111.86
6650,111.86
6651,111.86
6652,111.86
6653,122.688
6654,291.113
6655,315.938
6656,570.652
6657,583.354
6658,611.079
6659,643.244
6660,645.717
6661,662.679
6662,650.605
6663,657.46
6664,629.816
6665,550.984
6666,401.37
6667,427.03
6668,357.312
6669,350.14
6670,122.688
6671,111.86
6672,111.86
6673,111.86
6674,111.86
6675,111.86
6676,111.86
6677,122.688
6678,303.438
6679,332.989
6680,599.925
6681,617.339
6682,651.553
6683,674.474
6684,664.825
6685,682.614
6686,685.401
6687,698.279
6688,708.493
6689,626.895
6690,438.435
6691,450.759
6692,373.171
6693,359.577
6694,122.688
6695,146.873
6696,111.86
6697,98.065
6698,111.178
6699,148.328
6700,98.065
6701,98.065
6702,308.008
6703,276.029
6704,375.807
6705,413.57
6706,452.62
6707,474.834
6708,462.322
6709,425.426
6710,300.441
6711,324.567
6712,324.707
6713,275.242
6714,176.777
6715,154.912
6716,98.065
6717,134.047
6718,98.065
6719,98.065
6720,98.065
6721,98.065
6722,98.065
6723,98.065
6724,98.065
6725,98.065
6726,98.065
6727,84.36
6728,183.811
6729,172.249
6730,184.567
6731,181.619
6732,201.249
6733,200.793
6734,213.968
6735,194.313
6736,200.927
6737,180.562
6738,190.899
6739,177.793
6740,169.603
6741,147.946
6742,98.065
6743,121.249
6744,108.419
6745,98.065
6746,98.065
6747,98.065
6748,98.065
6749,98.065
6750,98.065
6751,67.512
6752,120.113
6753,150.808
6754,180.912
6755,164.152
6756,194.915
6757,170.855
6758,199.158
6759,169.73
6760,193.911
6761,157.139
6762,180.352
6763,156.501
6764,156.177
6765,107.757
6766,128.298
6767,98.065
6768,98.065
6769,111.86
6770,111.86
6771,111.86
6772,111.86
6773,122.688
6774,271.296
6775,303.09
6776,545.045
6777,568.597
6778,600.043
6779,623.831
6780,618.794
6781,641.298
6782,648.585
6783,665.265
6784,681.809
6785,602.881
6786,416.578
6787,415.887
6788,340.854
6789,333.014
6790,122.688
6791,111.86
6792,111.86
6793,111.86
6794,111.86
6795,111.86
6796,111.86
6797,122.688
6798,273.751
6799,306.9
6800,555.832
6801,586.221
6802,624.469
6803,645.677
6804,631.273
6805,643.615
6806,645.939
6807,663.172
6808,680.636
6809,604.717
6810,421.939
6811,419.927
6812,344.876
6813,336.528
6814,122.688
6815,111.86
6816,111.86
6817,111.86
6818,111.86
6819,111.86
6820,111.86
6821,139.868
6822,266.626
6823,305.541
6824,548.583
6825,579.572
6826,614.817
6827,642.929
6828,636.463
6829,653.778
6830,649.482
6831,628.79
6832,613.327
6833,545.905
6834,399.776
6835,422.002
6836,351.113
6837,341.088
6838,122.688
6839,111.86
6840,111.86
6841,111.86
6842,111.86
6843,111.86
6844,111.86
6845,176.431
6846,271.969
6847,320.218
6848,554.709
6849,533.493
6850,522.543
6851,526.844
6852,535.208
6853,540.89
6854,527.69
6855,541.674
6856,551.211
6857,495.839
6858,364.351
6859,394.15
6860,340.307
6861,340.479
6862,122.688
6863,111.86
6864,111.86
6865,98.065
6866,98.065
6867,98.065
6868,98.065
6869,98.065
6870,282.119
6871,263.405
6872,342.548
6873,345.322
6874,347.963
6875,358.015
6876,356.201
6877,341.209
6878,237.837
6879,228.105
6880,235.465
6881,217.383
6882,59.874
6883,98.065
6884,98.065
6885,98.065
6886,98.065
6887,98.065
6888,98.065
6889,98.065
6890,98.065
6891,98.065
6892,98.065
6893,98.065
6894,98.065
6895,67.512
6896,52.236
6897,140.348
6898,171.105
6899,160.35
6900,184.972
6901,137.583
6902,114.937
6903,162.553
6904,189.3
6905,162.58
6906,168.631
6907,98.065
6908,98.065
6909,98.065
6910,98.065
6911,98.065
6912,98.065
6913,111.86
6914,111.86
6915,111.86
6916,111.86
6917,122.688
6918,283.628
6919,313.688
6920,529.634
6921,525.254
6922,554.317
6923,589.257
6924,599.845
6925,627.578
6926,631.701
6927,643.754
6928,636.278
6929,557.309
6930,400.914
6931,417.28
6932,347.566
6933,341.226
6934,122.688
6935,111.86
6936,111.86
6937,111.86
6938,111.86
6939,111.86
6940,111.86
6941,122.688
6942,282.488
6943,314.397
6944,540.645
6945,551.936
6946,593.027
6947,620.724
6948,617.702
6949,642.373
6950,642.471
6951,650.704
6952,660.702
6953,568.307
6954,405.401
6955,410.932
6956,338.208
6957,330.589
6958,122.688
6959,111.86
6960,111.86
6961,111.86
6962,111.86
6963,111.86
6964,111.86
6965,122.688
6966,277.285
6967,304.409
6968,521.258
6969,529.461
6970,559.809
6971,588.058
6972,583.161
6973,608.07
6974,606.743
6975,619.744
6976,623.011
6977,540.059
6978,395.251
6979,407.119
6980,339.492
6981,334.805
6982,122.688
6983,111.86
6984,111.86
6985,111.86
6986,111.86
6987,111.86
6988,111.86
6989,122.688
6990,274.421
6991,303.292
6992,532.522
6993,557.949
6994,594.442
6995,621.701
6996,619.964
6997,634.865
6998,624.823
6999,646.573
7000,652.586
7001,580.088
7002,415.13
7003,417.19
7004,343.074
7005,331.436
7006,122.688
7007,111.86
7008,111.86
7009,111.86
7010,111.86
7011,111.86
7012,111.86
7013,122.688
7014,285.667
7015,318.086
7016,547.089
7017,572.727
7018,613.643
7019,635.043
7020,629.8
7021,647.033
7022,625.064
7023,611.091
7024,590.319
7025,516.751
7026,379.946
7027,395.259
7028,333.413
7029,334.037
7030,122.688
7031,111.86
7032,111.86
7033,98.065
7034,98.065
7035,98.065
7036,98.065
7037,98.065
7038,290.183
7039,264.101
7040,345.252
7041,368.133
7042,400.282
7043,412.164
7044,396.373
7045,393.77
7046,285.619
7047,274.806
7048,268.738
7049,234.937
7050,67.512
7051,98.065
7052,98.065
7053,98.065
7054,98.065
7055,98.065
7056,98.065
7057,98.065
7058,98.065
7059,98.065
7060,98.065
7061,98.065
7062,98.065
7063,67.512
7064,132.162
7065,167.577
7066,161.676
7067,197.695
7068,167.503
7069,200.565
7070,165.887
7071,188.926
7072,145.145
7073,108.959
7074,67.512
7075,98.065
7076,98.065
7077,98.065
7078,98.065
7079,98.065
7080,98.065
7081,111.86
7082,111.86
7083,111.86
7084,111.86
7085,122.688
7086,285.423
7087,315.74
7088,528.738
7089,500.248
7090,489.808
7091,494.801
7092,490.563
7093,504.97
7094,497.862
7095,503.038
7096,510.389
7097,455.343
7098,337.689
7099,364.479
7100,315.591
7101,314.587
7102,122.688
7103,111.86
7104,111.86
7105,111.86
7106,111.86
7107,111.86
7108,111.86
7109,122.688
7110,285.238
7111,309.342
7112,492.064
7113,476.183
7114,489.735
7115,512.952
7116,516.869
7117,536.731
7118,533.907
7119,544.194
7120,558.106
7121,485.446
7122,340.464
7123,353.643
7124,301.51
7125,301.51
7126,122.688
7127,111.86
7128,111.86
7129,111.86
7130,111.86
7131,111.86
7132,111.86
7133,122.688
7134,281.18
7135,305.095
7136,491.476
7137,482.379
7138,513.435
7139,535.986
7140,528.561
7141,537.727
7142,537.214
7143,536.078
7144,547.923
7145,483.575
7146,346.318
7147,363.712
7148,306.961
7149,307.224
7150,122.688
7151,111.86
7152,111.86
7153,111.86
7154,111.86
7155,111.86
7156,111.86
7157,122.688
7158,268.032
7159,301.727
7160,504.568
7161,494.824
7162,530.157
7163,551.976
7164,549.749
7165,575.401
7166,570.093
7167,569.249
7168,574.971
7169,508.536
7170,357.423
7171,369.716
7172,309.465
7173,307.571
7174,122.688
7175,111.86
7176,111.86
7177,111.86
7178,111.86
7179,111.86
7180,111.86
7181,122.688
7182,271.76
7183,300.891
7184,503.242
7185,499.731
7186,517.82
7187,537.451
7188,534.888
7189,552.844
7190,549.735
7191,565.586
7192,583.184
7193,515.068
7194,362.543
7195,375.882
7196,313.882
7197,310.336
7198,122.688
7199,111.86
7200,111.86
7201,98.065
7202,98.065
7203,98.065
7204,98.065
7205,98.065
7206,273.748
7207,251.572
7208,309.256
7209,331.678
7210,353.84
7211,371.06
7212,366.515
7213,359.053
7214,251.328
7215,246.389
7216,250.995
7217,203.61
7218,137.533
7219,98.065
7220,98.065
7221,98.065
7222,98.065
7223,98.065
7224,98.065
7225,98.065
7226,98.065
7227,98.065
7228,98.065
7229,98.065
7230,98.065
7231,75.15
7232,52.236
7233,94.284
7234,128.835
7235,152.044
7236,162.055
7237,155.163
7238,165.759
7239,156.904
7240,160.867
7241,147.32
7242,118.879
7243,98.065
7244,98.065
7245,98.065
7246,98.065
7247,98.065
7248,98.065
7249,111.86
7250,111.86
7251,111.86
7252,111.86
7253,122.688
7254,272.71
7255,322.076
7256,536.149
7257,533.441
7258,553.522
7259,569.474
7260,555.697
7261,569.37
7262,559.901
7263,559.172
7264,566.291
7265,508.637
7266,385.389
7267,397.122
7268,340.436
7269,335.752
7270,122.688
7271,111.86
7272,111.86
7273,111.86
7274,111.86
7275,111.86
7276,111.86
7277,122.688
7278,282.389
7279,320.999
7280,525.824
7281,506.407
7282,507.803
7283,533.957
7284,534.653
7285,559.131
7286,554.062
7287,548.253
7288,543.482
7289,485.255
7290,371.151
7291,390.346
7292,340.059
7293,338.076
7294,122.688
7295,111.86
7296,111.86
7297,111.86
7298,111.86
7299,111.86
7300,111.86
7301,122.688
7302,287.813
7303,336.636
7304,556.956
7305,581.502
7306,600.714
7307,619.858
7308,616.927
7309,628.923
7310,611.636
7311,606.277
7312,607.069
7313,540.865
7314,408.972
7315,413.353
7316,345.417
7317,343.108
7318,122.688
7319,111.86
7320,111.86
7321,111.86
7322,111.86
7323,111.86
7324,111.86
7325,145.353
7326,280.89
7327,333.145
7328,560.204
7329,556.363
7330,572.954
7331,598.484
7332,588.668
7333,588.621
7334,569.374
7335,582.154
7336,590.542
7337,517.26
7338,389.681
7339,403.163
7340,342.994
7341,344.649
7342,122.688
7343,111.86
7344,111.86
7345,111.86
7346,111.86
7347,111.86
7348,111.86
7349,122.688
7350,286.075
7351,330.927
7352,547.259
7353,553.674
7354,570.895
7355,561.236
7356,546.156
7357,564.819
7358,556.127
7359,570.03
7360,574.051
7361,502.583
7362,379.384
7363,393.758
7364,341.456
7365,340.055
7366,122.688
7367,111.86
7368,111.86
7369,98.065
7370,98.065
7371,98.065
7372,98.065
7373,98.065
7374,282.286
7375,271.175
7376,340.302
7377,346.007
7378,350.962
7379,377.759
7380,368.492
7381,361.454
7382,253.606
7383,250.26
7384,253.798
7385,221.373
7386,75.15
7387,98.065
7388,98.065
7389,98.065
7390,98.065
7391,98.065
7392,98.065
7393,98.065
7394,98.065
7395,98.065
7396,98.065
7397,98.065
7398,98.065
7399,75.15
7400,52.236
7401,109.003
7402,153.157
7403,177.301
7404,160.508
7405,194.81
7406,153.726
7407,173.872
7408,150.358
7409,145.518
7410,93.458
7411,98.065
7412,98.065
7413,98.065
7414,98.065
7415,98.065
7416,98.065
7417,111.86
7418,111.86
7419,111.86
7420,111.86
7421,111.86
7422,122.688
7423,249.457
7424,292.135
7425,551.59
7426,562.907
7427,570.427
7428,587.163
7429,585.585
7430,593.013
7431,581.031
7432,579.955
7433,573.074
7434,530.121
7435,404.891
7436,393.747
7437,333.487
7438,331.562
7439,122.688
7440,111.86
7441,111.86
7442,111.86
7443,111.86
7444,111.86
7445,111.86
7446,122.688
7447,250.335
7448,288.728
7449,565.9
7450,575.922
7451,591.106
7452,602.426
7453,600.946
7454,624.946
7455,633.846
7456,634.803
7457,620.117
7458,545.429
7459,408.479
7460,393.841
7461,327.582
7462,321.318
7463,122.688
7464,111.86
7465,111.86
7466,111.86
7467,111.86
7468,111.86
7469,111.86
7470,122.688
7471,249.823
7472,284.083
7473,535.376
7474,548.041
7475,564.697
7476,578.404
7477,577.91
7478,582.622
7479,554.062
7480,553.404
7481,556.478
7482,511.496
7483,387.727
7484,375.897
7485,323.498
7486,322.445
7487,122.688
7488,111.86
7489,111.86
7490,111.86
7491,111.86
7492,111.86
7493,111.86
7494,122.688
7495,245.103
7496,285.429
7497,536.254
7498,541.626
7499,553.02
7500,567.872
7501,561.201
7502,581.118
7503,557.407
7504,537.205
7505,533.715
7506,498.02
7507,382.469
7508,376.859
7509,327.762
7510,324.98
7511,122.688
7512,111.86
7513,111.86
7514,111.86
7515,111.86
7516,111.86
7517,111.86
7518,122.688
7519,247.33
7520,281.696
7521,538.961
7522,540.535
7523,522.319
7524,528.584
7525,534.712
7526,544.474
7527,532.509
7528,531.943
7529,527.035
7530,475.184
7531,359.387
7532,355.106
7533,304.473
7534,302.363
7535,122.688
7536,111.86
7537,98.065
7538,98.065
7539,98.065
7540,98.065
7541,98.065
7542,98.065
7543,75.15
7544,52.236
7545,83.561
7546,105.309
7547,139.572
7548,128.721
7549,150.217
7550,131.959
7551,152.216
7552,129.882
7553,140.423
7554,81.945
7555,98.065
7556,98.065
7557,98.065
7558,98.065
7559,98.065
7560,98.065
7561,98.065
7562,98.065
7563,98.065
7564,98.065
7565,98.065
7566,98.065
7567,82.789
7568,52.236
7569,52.236
7570,104.099
7571,129.144
7572,141.448
7573,137.442
7574,146.408
7575,139.905
7576,142.508
7577,132.709
7578,105.815
7579,98.065
7580,98.065
7581,98.065
7582,98.065
7583,98.065
7584,98.065
7585,111.86
7586,111.86
7587,111.86
7588,111.86
7589,111.86
7590,122.688
7591,293.98
7592,304.387
7593,491.246
7594,469.974
7595,481.359
7596,502.7
7597,507.335
7598,506.966
7599,497.14
7600,491.885
7601,496.246
7602,471.853
7603,365.34
7604,362.994
7605,311.024
7606,309.989
7607,122.688
7608,111.86
7609,111.86
7610,111.86
7611,111.86
7612,111.86
7613,111.86
7614,122.688
7615,258.529
7616,291.074
7617,505.773
7618,488.937
7619,498.498
7620,522.187
7621,528.209
7622,541.473
7623,538.231
7624,533.88
7625,523.225
7626,491.8
7627,373.81
7628,366.837
7629,315.524
7630,313.782
7631,122.688
7632,111.86
7633,111.86
7634,111.86
7635,111.86
7636,111.86
7637,111.86
7638,122.688
7639,241.164
7640,278.84
7641,514.292
7642,505.202
7643,513.498
7644,524.944
7645,526.229
7646,538.498
7647,526.48
7648,521.904
7649,523.293
7650,503.613
7651,384.604
7652,376.919
7653,324.185
7654,322.824
7655,122.688
7656,111.86
7657,111.86
7658,111.86
7659,111.86
7660,111.86
7661,111.86
7662,122.688
7663,250.583
7664,286.299
7665,534.824
7666,527.573
7667,534.965
7668,556.345
7669,547.854
7670,552.055
7671,535.649
7672,534.01
7673,532.804
7674,500.573
7675,376.864
7676,368.164
7677,314.177
7678,313.851
7679,122.688
7680,111.86
7681,111.86
7682,111.86
7683,111.86
7684,111.86
7685,111.86
7686,122.688
7687,241.959
7688,278.598
7689,534.403
7690,531.432
7691,546.399
7692,566.781
7693,567.686
7694,584.002
7695,580.976
7696,567.048
7697,555.52
7698,511.935
7699,380.881
7700,371.491
7701,316.889
7702,316.375
7703,122.688
7704,111.86
7705,98.065
7706,98.065
7707,98.065
7708,98.065
7709,98.065
7710,98.065
7711,243.079
7712,216.809
7713,320.114
7714,344.697
7715,354.385
7716,362.295
7717,358.503
7718,353.492
7719,244.023
7720,230.425
7721,225.902
7722,222.491
7723,98.065
7724,98.065
7725,98.065
7726,98.065
7727,98.065
7728,98.065
7729,98.065
7730,98.065
7731,98.065
7732,98.065
7733,98.065
7734,98.065
7735,82.789
7736,109.315
7737,142.535
7738,152.849
7739,152.406
7740,159.66
7741,153.098
7742,164.992
7743,158.325
7744,159.834
7745,145.838
7746,135.918
7747,98.065
7748,98.065
7749,98.065
7750,98.065
7751,98.065
7752,98.065
7753,111.86
7754,111.86
7755,111.86
7756,111.86
7757,111.86
7758,122.688
7759,250.479
7760,270.88
7761,507.424
7762,519.999
7763,537.297
7764,550.205
7765,551.649
7766,573.398
7767,578.922
7768,578.364
7769,562.796
7770,511.957
7771,379.41
7772,366.669
7773,310.795
7774,311.124
7775,122.688
7776,111.86
7777,111.86
7778,111.86
7779,111.86
7780,111.86
7781,111.86
7782,122.688
7783,261.435
7784,279.993
7785,507.817
7786,506.269
7787,517.26
7788,530.801
7789,531.689
7790,548.597
7791,549.066
7792,558.241
7793,549.529
7794,496.63
7795,364.289
7796,355.233
7797,304.713
7798,301.951
7799,122.688
7800,111.86
7801,111.86
7802,111.86
7803,111.86
7804,111.86
7805,111.86
7806,122.688
7807,306.175
7808,274.715
7809,485.491
7810,474.951
7811,479.944
7812,496.824
7813,505.086
7814,519.275
7815,512.944
7816,515.293
7817,510.689
7818,480.356
7819,364.484
7820,362.886
7821,313.157
7822,310.968
7823,122.688
7824,111.86
7825,98.065
7826,98.065
7827,98.065
7828,98.065
7829,98.065
7830,98.065
7831,82.789
7832,52.236
7833,52.236
7834,52.236
7835,52.236
7836,129.644
7837,163.217
7838,141.279
7839,164.876
7840,138.387
7841,144.613
7842,91.007
7843,98.065
7844,98.065
7845,98.065
7846,98.065
7847,98.065
7848,98.065
7849,111.86
7850,111.86
7851,111.86
7852,111.86
7853,111.86
7854,122.688
7855,255.287
7856,284.887
7857,532.536
7858,542.887
7859,554.314
7860,572.505
7861,571.866
7862,592.286
7863,577.226
7864,565.679
7865,567.447
7866,531.752
7867,395.28
7868,380.55
7869,327.127
7870,326.084
7871,122.688
7872,111.86
7873,98.065
7874,98.065
7875,98.065
7876,98.065
7877,98.065
7878,98.065
7879,260.575
7880,235.132
7881,319.262
7882,329.183
7883,342.728
7884,341.135
7885,350.537
7886,348.951
7887,234.629
7888,232.394
7889,217.899
7890,212.706
7891,98.065
7892,98.065
7893,98.065
7894,98.065
7895,98.065
7896,98.065
7897,98.065
7898,98.065
7899,98.065
7900,98.065
7901,98.065
7902,98.065
7903,90.427
7904,52.236
7905,82.786
7906,128.646
7907,139.635
7908,138.768
7909,146.309
7910,143.829
7911,144.538
7912,137.076
7913,103.397
7914,82.789
7915,98.065
7916,98.065
7917,98.065
7918,98.065
7919,98.065
7920,98.065
7921,111.86
7922,111.86
7923,111.86
7924,111.86
7925,111.86
7926,122.688
7927,283.484
7928,295.162
7929,491.828
7930,478.415
7931,480.952
7932,503.11
7933,501.352
7934,523.124
7935,524.417
7936,517.165
7937,512.931
7938,484.657
7939,371.368
7940,369.493
7941,319.472
7942,317.069
7943,122.688
7944,111.86
7945,111.86
7946,111.86
7947,111.86
7948,111.86
7949,111.86
7950,122.688
7951,292.567
7952,280.072
7953,509.059
7954,511.139
7955,518.158
7956,529.855
7957,533.968
7958,549.147
7959,553.49
7960,557.529
7961,551.324
7962,501.643
7963,374.264
7964,370.002
7965,320.367
7966,320.285
7967,122.688
7968,111.86
7969,111.86
7970,111.86
7971,111.86
7972,111.86
7973,111.86
7974,122.688
7975,267.359
7976,293.215
7977,530.134
7978,521.43
7979,525.129
7980,534.508
7981,528.622
7982,552.131
7983,528.701
7984,520.073
7985,530.411
7986,506.79
7987,389.994
7988,384.973
7989,333.702
7990,333.184
7991,122.688
7992,111.86
7993,111.86
7994,111.86
7995,111.86
7996,111.86
7997,111.86
7998,122.688
7999,273.99
8000,297.926
8001,545.446
8002,543.93
8003,552.926
8004,581.652
8005,584.649
8006,604.16
8007,591.665
8008,572.537
8009,566.209
8010,530.337
8011,391.785
8012,372.059
8013,312.98
8014,306.17
8015,122.688
8016,111.86
8017,111.86
8018,111.86
8019,111.86
8020,111.86
8021,111.86
8022,122.688
8023,322.936
8024,298.121
8025,474.346
8026,445.445
8027,449.042
8028,468.904
8029,476.506
8030,485.727
8031,476.066
8032,474.16
8033,469.172
8034,447.153
8035,354.895
8036,356.478
8037,315.623
8038,324.597
8039,122.688
8040,111.86
8041,98.065
8042,98.065
8043,98.065
8044,98.065
8045,98.065
8046,98.065
8047,307.116
8048,263.059
8049,323.891
8050,313.169
8051,306.831
8052,315.506
8053,313.297
8054,301.005
8055,209.222
8056,207.122
8057,212.327
8058,229.982
8059,98.065
8060,98.065
8061,98.065
8062,98.065
8063,98.065
8064,98.065
8065,98.065
8066,98.065
8067,98.065
8068,98.065
8069,98.065
8070,98.065
8071,90.427
8072,52.236
8073,52.236
8074,96.696
8075,135.86
8076,140.138
8077,136.973
8078,109.918
8079,52.236
8080,52.236
8081,52.236
8082,82.789
8083,98.065
8084,98.065
8085,98.065
8086,98.065
8087,98.065
8088,98.065
8089,111.86
8090,111.86
8091,111.86
8092,111.86
8093,111.86
8094,122.688
8095,263.041
8096,293.899
8097,508.391
8098,487.516
8099,493.25
8100,514.417
8101,519.635
8102,529.635
8103,514.664
8104,510.268
8105,514.827
8106,491.503
8107,380.165
8108,373.072
8109,317.766
8110,312.611
8111,122.688
8112,111.86
8113,111.86
8114,111.86
8115,111.86
8116,111.86
8117,111.86
8118,122.688
8119,267.394
8120,281.702
8121,500.353
8122,480.382
8123,483.453
8124,519.185
8125,542.939
8126,553.336
8127,527.169
8128,520.582
8129,526.645
8130,499.282
8131,385.864
8132,383.466
8133,332.781
8134,331.463
8135,122.688
8136,111.86
8137,111.86
8138,111.86
8139,111.86
8140,111.86
8141,111.86
8142,122.688
8143,299.799
8144,285.969
8145,495.081
8146,488.969
8147,493.633
8148,510.032
8149,520.606
8150,539.5
8151,525.807
8152,519.017
8153,506.278
8154,470.816
8155,355.701
8156,351.369
8157,298.699
8158,295.036
8159,122.688
8160,111.86
8161,111.86
8162,111.86
8163,111.86
8164,111.86
8165,111.86
8166,122.688
8167,291.371
8168,300.875
8169,485.648
8170,456.599
8171,458.97
8172,477.689
8173,490.432
8174,504.754
8175,491.367
8176,492.484
8177,489.646
8178,456.215
8179,353.917
8180,351.388
8181,303.51
8182,308.744
8183,122.688
8184,111.86
8185,111.86
8186,111.86
8187,111.86
8188,111.86
8189,111.86
8190,122.688
8191,335.821
8192,317.57
8193,495.706
8194,467.741
8195,467.869
8196,472.964
8197,474.78
8198,480.257
8199,471.707
8200,463.55
8201,467.203
8202,460.792
8203,366.591
8204,361.36
8205,310.587
8206,309.484
8207,122.688
8208,111.86
8209,98.065
8210,98.065
8211,98.065
8212,98.065
8213,98.065
8214,98.065
8215,334.095
8216,255.688
8217,309.356
8218,315.556
8219,312.793
8220,323.617
8221,322.276
8222,311.916
8223,209.478
8224,203.725
8225,200.657
8226,213.007
8227,98.065
8228,98.065
8229,98.065
8230,98.065
8231,98.065
8232,98.065
8233,98.065
8234,98.065
8235,98.065
8236,98.065
8237,98.065
8238,98.065
8239,98.065
8240,52.236
8241,52.236
8242,52.236
8243,52.236
8244,52.236
8245,52.236
8246,52.236
8247,52.236
8248,52.236
8249,52.236
8250,82.789
8251,98.065
8252,98.065
8253,98.065
8254,98.065
8255,98.065
8256,98.065
8257,111.86
8258,111.86
8259,111.86
8260,111.86
8261,111.86
8262,122.688
8263,283.718
8264,294.676
8265,499.011
8266,486.585
8267,495.39
8268,509.346
8269,513.257
8270,520.187
8271,508.381
8272,504.356
8273,508.667
8274,476.575
8275,363.932
8276,362.055
8277,311.954
8278,311.763
8279,122.688
8280,111.86
8281,111.86
8282,111.86
8283,111.86
8284,111.86
8285,111.86
8286,122.688
8287,308.472
8288,295.596
8289,504.714
8290,499.537
8291,506.949
8292,531.431
8293,529.774
8294,536.891
8295,523.359
8296,525.507
8297,528.464
8298,499.074
8299,383.086
8300,378.736
8301,328.795
8302,328.185
8303,122.688
8304,111.86
8305,111.86
8306,111.86
8307,111.86
8308,111.86
8309,111.86
8310,122.688
8311,279.554
8312,300.242
8313,522.926
8314,507.318
8315,523.944
8316,549.309
8317,561.363
8318,577.605
8319,559.007
8320,564.4
8321,557.615
8322,518.189
8323,388.397
8324,379.813
8325,327.227
8326,324.507
8327,122.688
8328,111.86
8329,111.86
8330,111.86
8331,111.86
8332,111.86
8333,111.86
8334,122.688
8335,288.374
8336,293.131
8337,509.942
8338,502.595
8339,529.324
8340,552.102
8341,560.276
8342,578.965
8343,566.272
8344,567.536
8345,554.022
8346,519.48
8347,392.611
8348,385.978
8349,333.49
8350,331.562
8351,122.688
8352,111.86
8353,111.86
8354,111.86
8355,111.86
8356,111.86
8357,111.86
8358,122.688
8359,288.254
8360,298.762
8361,536.081
8362,543.963
8363,551.57
8364,565.551
8365,560.514
8366,579.396
8367,567.608
8368,571.476
8369,567.88
8370,530.16
8371,400.169
8372,391.343
8373,339.605
8374,339.08
8375,122.688
8376,111.86
8377,98.065
8378,98.065
8379,98.065
8380,98.065
8381,98.065
8382,98.065
8383,287.226
8384,245.878
8385,335.016
8386,353.356
8387,370.171
8388,382.389
8389,382.441
8390,370.595
8391,253.877
8392,243.252
8393,232.355
8394,235.776
8395,98.065
8396,98.065
8397,98.065
8398,98.065
8399,98.065
8400,98.065
8401,98.065
8402,98.065
8403,98.065
8404,98.065
8405,98.065
8406,98.065
8407,98.065
8408,52.236
8409,96.864
8410,149.998
8411,157.874
8412,152.984
8413,168.677
8414,159.296
8415,170.503
8416,161.53
8417,159.517
8418,107.484
8419,98.065
8420,98.065
8421,98.065
8422,98.065
8423,98.065
8424,98.065
8425,111.86
8426,111.86
8427,111.86
8428,111.86
8429,111.86
8430,122.688
8431,278.025
8432,288.888
8433,512.272
8434,498.71
8435,510.315
8436,522.638
8437,521.595
8438,535.008
8439,531.759
8440,522.995
8441,523.576
8442,500.648
8443,388.582
8444,385.164
8445,334.585
8446,333.419
8447,122.688
8448,111.86
8449,111.86
8450,111.86
8451,111.86
8452,111.86
8453,111.86
8454,122.688
8455,285.832
8456,295.847
8457,534.344
8458,536.201
8459,533.123
8460,557.216
8461,562.504
8462,580.585
8463,575.404
8464,563.455
8465,556.835
8466,516.642
8467,383.086
8468,377.16
8469,327.388
8470,326.916
8471,122.688
8472,111.86
8473,111.86
8474,111.86
8475,111.86
8476,111.86
8477,111.86
8478,122.688
8479,276.578
8480,276.445
8481,495.765
8482,482.365
8483,490.273
8484,496.416
8485,493.909
8486,502.832
8487,484.282
8488,481.583
8489,481.071
8490,457.606
8491,359.686
8492,356.963
8493,312.661
8494,321.264
8495,122.688
8496,111.86
8497,111.86
8498,111.86
8499,111.86
8500,111.86
8501,111.86
8502,122.688
8503,387.267
8504,328.308
8505,490.276
8506,469.762
8507,472.791
8508,483.464
8509,487.06
8510,487.874
8511,478.709
8512,480.588
8513,481.387
8514,447.061
8515,359.529
8516,360.049
8517,316.023
8518,319.811
8519,122.688
8520,111.86
8521,111.86
8522,111.86
8523,111.86
8524,111.86
8525,111.86
8526,122.688
8527,378.822
8528,340.006
8529,488.446
8530,459.883
8531,462.223
8532,476.556
8533,485.878
8534,490.637
8535,481.203
8536,483.018
8537,477.792
8538,440.838
8539,355.527
8540,358.423
8541,317.144
8542,325.435
8543,122.688
8544,111.86
8545,98.065
8546,98.065
8547,98.065
8548,98.065
8549,98.065
8550,98.065
8551,370.19
8552,288.565
8553,341.509
8554,328.548
8555,321.384
8556,326.758
8557,324.504
8558,313.721
8559,211.499
8560,204.006
8561,200.065
8562,211.579
8563,98.065
8564,98.065
8565,98.065
8566,98.065
8567,98.065
8568,98.065
8569,98.065
8570,98.065
8571,98.065
8572,98.065
8573,98.065
8574,98.065
8575,98.065
8576,52.236
8577,52.236
8578,52.236
8579,81.28
8580,136.318
8581,142.832
8582,138.988
8583,142.985
8584,132.799
8585,70.692
8586,75.15
8587,98.065
8588,98.065
8589,98.065
8590,98.065
8591,98.065
8592,98.065
8593,98.065
8594,98.065
8595,98.065
8596,98.065
8597,98.065
8598,98.065
8599,98.065
8600,52.236
8601,52.236
8602,58.555
8603,137.013
8604,138.086
8605,149.564
8606,147.354
8607,152.414
8608,141.378
8609,131.523
8610,75.15
8611,98.065
8612,98.065
8613,98.065
8614,98.065
8615,98.065
8616,98.065
8617,111.86
8618,111.86
8619,111.86
8620,111.86
8621,111.86
8622,122.688
8623,305.715
8624,324.825
8625,503.919
8626,469.451
8627,458.222
8628,479.49
8629,488.451
8630,494.27
8631,485.146
8632,486.366
8633,485.297
8634,449.268
8635,358.776
8636,357.752
8637,314.632
8638,323.452
8639,122.688
8640,111.86
8641,111.86
8642,111.86
8643,111.86
8644,111.86
8645,111.86
8646,122.688
8647,393.393
8648,345.365
8649,493.933
8650,474.497
8651,479.326
8652,489.674
8653,492.242
8654,496.108
8655,484.772
8656,477.98
8657,482.451
8658,453.933
8659,367.306
8660,366.512
8661,319.02
8662,320.379
8663,122.688
8664,111.86
8665,111.86
8666,111.86
8667,111.86
8668,111.86
8669,111.86
8670,122.688
8671,301.708
8672,305.029
8673,498.132
8674,492.069
8675,493.625
8676,504.964
8677,503.742
8678,515.818
8679,495.432
8680,486.669
8681,489.611
8682,462.017
8683,368.859
8684,364.831
8685,313.489
8686,311.684
8687,122.688
8688,111.86
8689,111.86
8690,111.86
8691,111.86
8692,111.86
8693,111.86
8694,122.688
8695,261.049
8696,292.134
8697,498.535
8698,477.877
8699,479.057
8700,493.591
8701,493.034
8702,500.904
8703,496.554
8704,504.657
8705,507.081
8706,471.187
8707,373.869
8708,370.765
8709,319.35
8710,317.331
8711,122.688
8712,111.86
8713,98.065
8714,98.065
8715,98.065
8716,98.065
8717,98.065
8718,98.065
8719,265.057
8720,233.286
8721,308.075
8722,315.609
8723,314.492
8724,326.014
8725,329.639
8726,323.122
8727,220.239
8728,212.392
8729,210.279
8730,204.699
8731,98.065
8732,98.065
8733,98.065
8734,98.065
8735,98.065
8736,98.065
8737,98.065
8738,98.065
8739,98.065
8740,98.065
8741,98.065
8742,98.065
8743,98.065
8744,59.874
8745,97.059
8746,128.689
8747,156.993
8748,139.934
8749,164.225
8750,142.218
8751,159.306
8752,137.04
8753,151.436
8754,82.564
8755,98.065
8756,98.065
8757,98.065
8758,98.065
8759,98.065
8760,98.065